# Normalization: A0V magnitude 15.000000 for filter 2MASS Ks
# 
# Magnitude listing:
#
# Index Filter Name         Effective Wavelength (microns)  Zero Magnitude Flux Density (W/m^2/micron and Jy)
#      1 NIRISS F090W                       0.9025             6.745056e-09            1832.3900
#      2 NIRISS F115W                       1.1495             4.003927e-09            1764.8800
#      3 NIRISS F140M                       1.4040             1.955686e-09            1285.9800
#      4 NIRISS F150W                       1.4935             1.568060e-09            1166.6150
#      5 NIRISS F158M                       1.5820             1.280165e-09            1068.7210
#      6 NIRISS F200W                       1.9930             5.633124e-10             746.3219
#      7 NIRISS F277W                       2.7643             1.579440e-10             402.5751
#      8 NIRISS F356W                       3.5930             6.054428e-11             260.7161
#      9 NIRISS F380M                       3.8252             4.718752e-11             230.3143
#     10 NIRISS F430M                       4.2838             3.076813e-11             188.3407
#     11 NIRISS F444W                       4.4277             2.703697e-11             176.8046
#     12 NIRISS F480M                       4.8152             1.952216e-11             150.9884
#     13 Guider 1                           2.5011             2.388653e-10             498.4101
#     14 Guider 2                           2.5917             2.100422e-10             470.5862
#     15 NIRCam F070W                       0.7049             1.731883e-08            2870.2820
#     16 NIRCam F090W                       0.9034             7.554502e-09            2056.6650
#     17 NIRCam F115W                       1.1540             3.950106e-09            1754.5350
#     18 NIRCam F140M                       1.4060             1.946400e-09            1283.3750
#     19 NIRCam F150W                       1.6589             1.111587e-09            1020.3390
#     20 NIRCam F150W2                      1.5001             1.542904e-09            1158.1550
#     21 NIRCam F162M                       1.6276             1.182384e-09            1044.8130
#     22 NIRCam F164N                       1.6447             1.059261e-09             955.8099
#     23 NIRCam F182M                       1.8453             7.498027e-10             851.6233
#     24 NIRCam F187M                       1.8738             6.212610e-10             727.5810
#     25 NIRCam F200W                       1.9887             5.678360e-10             749.1183
#     26 NIRCam F210M                       2.0953             4.665281e-10             683.2059
#     27 NIRCam F212N                       2.1219             4.444403e-10             667.5004
#     28 NIRCam F250M                       2.5039             2.383666e-10             498.5113
#     29 NIRCam F277W                       2.7500             1.637954e-10             413.1801
#     30 NIRCam F300M                       2.9887             1.228666e-10             366.0818
#     31 NIRCam F322W2                      3.2307             9.109007e-11             317.1383
#     32 NIRCam F323N                       3.2365             9.046063e-11             316.0664
#     33 NIRCam F335M                       3.3578             7.853542e-11             295.3586
#     34 NIRCam F356W                       3.5642             6.245112e-11             264.6374
#     35 NIRCam F360M                       3.6247             5.852460e-11             256.4892
#     36 NIRCam F405N                       4.0506             3.537717e-11             193.6172
#     37 NIRCam F410M                       4.0720             3.722588e-11             205.8888
#     38 NIRCam F430M                       4.2822             3.081296e-11             188.4742
#     39 NIRCam F444W                       4.3849             2.718466e-11             174.3506
#     40 NIRCam F460M                       4.6350             2.236918e-11             160.2971
#     41 NIRCam F466N                       4.6543             2.058211e-11             148.7219
#     42 NIRCam F470N                       4.7083             2.123217e-11             157.0015
#     43 NIRCam F480M                       4.7941             1.985784e-11             152.2411
#     44 MIRI F560W                         5.6353             1.057174e-11             111.9832
#     45 MIRI F770W                         7.6393             3.200728e-12              62.3073
#     46 MIRI F1000W                        9.9531             1.126239e-12              37.2158
#     47 MIRI F1280W                       11.3085             6.461394e-13              27.5623
#     48 MIRI F1130W                       12.8101             4.138435e-13              22.6529
#     49 MIRI F1500W                       15.0635             2.170952e-13              16.4317
#     50 MIRI F1800W                       17.9837             1.071650e-13              11.5609
#     51 MIRI F2100W                       20.7950             5.994159e-14               8.6462
#     52 MIRI F2550W                       25.3641             2.710017e-14               5.8155
#     53 Sloan u                            0.3516             3.690704e-08            1521.6060
#     54 Sloan g                            0.4785             5.681888e-08            4338.8810
#     55 Sloan r                            0.6240             2.521913e-08            3275.3610
#     56 Sloan i                            0.7655             1.328252e-08            2596.1980
#     57 Sloan z                            0.9099             8.855897e-09            2445.8980
#     58 Bessell U                          0.3598             3.617874e-08            1562.5440
#     59 Bessell B                          0.4399             7.152951e-08            4616.9450
#     60 Bessell V                          0.5500             3.727887e-08            3762.2250
#     61 Bessell/Cousins R                  0.6556             1.561013e-08            2238.0740
#     62 Bessell/Cousins I                  0.8047             1.132167e-08            2445.2080
#     63 Johnson U                          0.3645             3.546262e-08            1571.4130
#     64 Johnson B                          0.4402             7.164254e-08            4630.9710
#     65 Johnson V                          0.5493             3.748176e-08            3772.2970
#     66 Johnson R                          0.6898             1.854689e-08            2943.9090
#     67 Johnson I                          0.8735             8.560752e-09            2178.9830
#     68 Johnson J                          1.2189             3.249713e-09            1610.5520
#     69 Johnson H                          1.6403             9.957451e-10             893.7148
#     70 Johnson K                          2.1845             3.967506e-10             631.5587
#     71 Johnson L                          3.5271             6.503124e-11             269.8538
#     72 Johnson M                          5.0122             1.669444e-11             139.8951
#     73 Johnson N                         10.2560             9.971669e-13              34.9867
#     74 IRAS [12]                         11.4062             6.556038e-13              28.4512
#     75 IRAS [25]                         23.6091             3.599342e-14               6.6921
#     76 IRAS [60]                         60.4786             8.252884e-16               1.0069
#     77 IRAS [100]                       101.1442             1.035849e-16               0.3535
#     78 2MASS J                            1.2393             3.062427e-09            1568.9350
#     79 2MASS H                            1.6495             1.114849e-09            1011.8060
#     80 2MASS Ks                           2.1639             3.679387e-10             574.6639
#     81 IRAC [3.6]                         3.5547             6.310016e-11             265.9611
#     82 IRAC [4.4]                         4.5006             2.538788e-11             171.5337
#     83 IRAC [5.7]                         5.6749             1.027267e-11             110.3501
#     84 IRAC [8.0]                         7.9139             2.786247e-12              58.2082
#     85 MIPS [24]                         23.7589             3.509937e-14               6.6090
#     86 MIPS [70]                         71.9869             4.090412e-16               0.7071
#     87 MIPS [160]                       156.4278             1.779898e-17               0.1453
#     88 DENIS i                            0.7919             1.192139e-08            2493.8720
#     89 DENIS J                            1.2337             3.110964e-09            1579.3380
#     90 DENIS Ks                           2.1605             3.946408e-10             614.4404
#     91 WISE W1                            3.3682             7.759902e-11             293.6552
#     92 WISE W2                            4.6179             2.289532e-11             162.8598
#     93 WISE W3                           12.0730             5.236614e-13              25.4602
#     94 WISE W4                           22.1943             4.613328e-14               7.5801
#     95 UKIDSS Z                           0.8826             9.346296e-09            2428.6690
#     96 UKIDSS Y                           1.0315             5.861939e-09            2080.2610
#     97 UKIDSS J                           1.2502             2.966327e-09            1546.4470
#     98 UKIDSS H                           1.6360             1.116808e-09             997.0306
#     99 UKIDSS K                           2.2060             3.838037e-10             623.0153
#    100 Pan-STARRS1 g                      0.4849             3.981886e-08            3123.1450
#    101 Pan-STARRS1 r                      0.6201             2.593247e-08            3326.3800
#    102 Pan-STARRS1 i                      0.7535             1.399369e-08            2650.1690
#    103 Pan-STARRS1 z                      0.8674             8.007634e-09            2009.7330
#    104 Pan-STARRS1 y                      0.9628             7.311309e-09            2260.6110
#    105 Pan-STARRS1 w                      0.6286             2.485600e-08            3276.0750
#    106 HST ACS F220W                      0.2253             4.620725e-08             782.4665
#    107 HST ACS F250W                      0.2717             4.118787e-08            1014.3220
#    108 HST ACS F330W                      0.3350             3.826382e-08            1432.5390
#    109 HST ACS F435W                      0.4274             7.746100e-08            4719.0020
#    110 HST ACS F475W                      0.4732             5.894561e-08            4402.2280
#    111 HST ACS F555W                      0.5346             4.058005e-08            3868.4480
#    112 HST ACS F606W                      0.5874             3.065635e-08            3528.7380
#    113 HST ACS F625W                      0.6296             2.470507e-08            3266.4570
#    114 HST ACS F775W                      0.7752             1.277154e-08            2559.8290
#    115 HST ACS F814W                      0.8298             1.027214e-08            2359.4290
#    116 HST WFC3 F218W                     0.2185             5.526740e-08             879.8247
#    117 HST WFC3 F225W                     0.2342             4.098992e-08             749.7670
#    118 HST WFC3 F275W                     0.2717             4.125767e-08            1015.8390
#    119 HST WFC3 F336W                     0.3362             3.799152e-08            1432.5010
#    120 HST WFC3 F390W                     0.3906             7.835365e-08            3987.0310
#    121 HST WFC3 F438W                     0.4320             6.657472e-08            4144.1940
#    122 HST WFC3 F475W                     0.4762             5.784444e-08            4375.3830
#    123 HST WFC3 F555W                     0.5311             4.113683e-08            3871.0150
#    124 HST WFC3 F606W                     0.5909             3.007579e-08            3502.4690
#    125 HST WFC3 F625W                     0.6256             2.512276e-08            3279.4620
#    126 HST WFC3 F775W                     0.7735             1.285991e-08            2566.5530
#    127 HST WFC3 F814W                     0.8307             1.024973e-08            2359.2620
#    128 HST WFC3 F105W                     1.0804             4.954001e-09            1929.0090
#    129 HST WFC3 F110W                     1.1550             3.937770e-09            1752.1460
#    130 HST WFC3 F125W                     1.2462             2.994458e-09            1551.2360
#    131 HST WFC3 F140W                     1.3924             2.015436e-09            1303.3490
#    132 HST WFC3 F160W                     1.5409             1.395833e-09            1105.5490
#    133 GAIA g                             0.6247             2.510122e-08            3267.2610
#    134 GAIA gbp                           0.5049             4.821772e-08            4099.5040
#    135 GAIA grp                           0.7741             1.282906e-08            2564.2110
# 
  -4.1138  -5.7580  -6.7339  -5.9515  -9.7158  -6.0764 -10.3361 -13.2584 -13.9255 -17.8210 -20.4768 -21.7044 -17.8589 -18.1859  26.1149  25.8581  27.1261  26.9834  16.5410  27.0322  27.0335  25.3510  26.1638  24.4773  18.1556  17.9010  18.4464  -9.6922  -7.7331  -8.7883 -12.0573  -6.3947  -8.9837 -12.5994 -12.0883 -15.7411 -16.3955 -17.8278 -20.1653 -20.4868 -20.5682 -20.9038 -21.5906 -26.8056 -33.5849 -37.6304 -39.2492 -40.7689 -42.3805 -43.8439 -44.8421 -45.9761  24.6707  25.1024  24.7920  24.3338  22.7869 323.0253 232.8092 176.6388 127.7939 121.0207 324.1966 234.5323 166.2129 117.3363  85.0614  61.3873  34.9094  13.0638 -13.1458 -24.4701 -38.4093 -39.4408 -45.1901 -48.3060 -49.2371  61.8201  34.9333  15.0000 -12.1026 -20.5377 -27.1532 -34.3299 -45.5748 -48.9380 -49.7483 121.2054  61.2161  14.6661 -10.4898 -21.5320 -40.2077 -45.2057 113.5524  89.4775  62.2581  34.1986  12.9751 228.7321 171.7801 137.0335 115.6914  93.7024 137.4871 105.3589 110.2089 104.2876 105.2621 103.6202 102.9423 110.0216 109.6486 108.8857 107.7773 103.2530 101.5751 102.0458 102.4450 111.7466 112.2621 104.9898 101.1967 104.0144 104.4073 107.7250 102.4744  29.5100  34.1419  43.2247  38.7075  38.4373  97.8069 169.0229  96.6638 # Blackbody T = 100.000
   2.2030   0.6865  -0.3079   0.4949  -3.2601   0.3789  -3.9418  -8.3915  -8.9912 -12.3925 -14.4095 -15.6087 -11.4415 -11.7656  26.2147  26.0175  27.2438  27.0939  16.7320  27.1099  27.1590  25.3805  24.5368  24.2817  17.7392  17.3593  17.6534  -3.5819  -1.7485  -2.7793  -7.2555  -2.9003  -4.8657  -7.8758  -7.4904 -10.7009 -11.1668 -12.4121 -14.1497 -14.6164 -14.7041 -14.9758 -15.5227 -19.7412 -25.3311 -28.7270 -30.0885 -31.3083 -32.6270 -33.8267 -34.6303 -35.5504  24.6707  25.1024  24.7920  24.3338  22.7869 272.0773 197.3399 150.5215 109.9195 103.6265 273.1256 198.6409 142.0854 101.2716  74.3507  53.9941  31.7054  13.5059  -8.1955 -17.6180 -29.1225 -29.9762 -34.8354 -37.3796 -38.1471  54.4438  31.6648  15.0000  -7.4857 -14.4984 -19.9805 -25.8877 -35.2193 -37.9274 -38.5882 104.1799  54.1174  14.7702  -6.1063 -15.2983 -30.6120 -34.9240  97.3077  77.4038  55.1805  31.3174  13.3850 193.4440 145.9234 116.7154  98.8884  81.1482 118.0044  92.4877  96.6005  91.3972  92.6524  91.0118  90.3341  96.5875  96.1345  95.3349  93.9348  90.7096  89.1580  89.5957  90.0597  99.3494  99.2723  92.6280  88.8277  91.5762  92.0463  95.3007  89.5606  27.8293  31.7368  40.8905  36.6589  35.5025  85.1525 145.5714  84.1894 # Blackbody T = 120.000
   6.6490   5.2819   4.2636   5.0963   1.3645   4.9787   0.5388  -4.9174  -5.5642  -8.4942 -10.0747 -11.2291  -6.8635  -7.1809  26.2825  26.1228  27.3195  27.1593  16.8649  27.1614  27.2245  25.4050  23.2051  23.4713  17.4426  16.9762  17.1152   0.7808   2.1925   1.0330  -3.8298  -0.4114  -1.9995  -4.5060  -4.2572  -7.0736  -7.4183  -8.5174  -9.8551 -10.3960 -10.4844 -10.7104 -11.1625 -14.6857 -19.4262 -22.3458 -23.5151 -24.5266 -25.6355 -26.6446 -27.3115 -28.0794  24.6707  25.1024  24.7920  24.3338  22.7869 235.6563 171.9621 131.8522  97.1280  91.1585 236.5684 172.9704 124.8297  89.7715  66.6601  48.6555  29.3898  13.8111  -4.6717 -12.7451 -22.5022 -23.2237 -27.4268 -29.5652 -30.2174  49.0454  29.3225  15.0000  -4.1865 -10.1829 -14.8554 -19.8563 -27.8000 -30.0520 -30.6101  91.9504  48.8725  14.8360  -2.9744 -10.8466 -23.7661 -27.5559  85.5594  68.5798  49.7816  29.1519  13.6692 168.1078 127.3618 102.1735  86.8627  72.1341 103.8804  83.2831  86.8685  82.1978  83.6285  81.9905  81.3130  86.9924  86.4862  85.6644  83.3271  81.7395  80.2894  80.7060  81.2232  90.4823  89.9672  83.8112  80.0052  82.7108  83.2298  86.4244  80.2721  26.6575  30.0431  39.2459  35.1088  32.9523  76.0836 128.8234  75.2374 # Blackbody T = 140.000
   9.9094   8.7135   7.6671   8.5369   4.8419   8.4071   3.6034  -2.3138  -2.9956  -5.5529  -6.8239  -7.9261  -3.4367  -3.7456  26.3321  26.1982  27.3725  27.1993  16.9605  27.1852  27.1416  25.4105  22.1802  22.4713  17.2192  16.6917  16.7315   4.0489   4.5545   3.2615  -1.2625   1.4688   0.1410  -1.9794  -1.8350  -4.3328  -4.5959  -5.5776  -6.6363  -7.2114  -7.2983  -7.4900  -7.8740 -10.8865 -14.9903 -17.5441 -18.5645 -19.4233 -20.3746 -21.2403 -21.8065 -22.4612  24.6707  25.1024  24.7920  24.3338  22.7869 208.3137 152.8911 117.8374  87.5127  81.7767 209.0921 153.6892 111.8692  81.1230  60.8575  44.6170  27.6408  14.0331  -2.0398  -9.1044 -17.5481 -18.1664 -21.8620 -23.6993 -24.2664  44.9226  27.5603  15.0000  -1.7117  -6.9451 -11.0096 -15.3316 -22.2211 -24.1405 -24.6237  82.7115  44.8330  14.8805  -0.6252  -7.5085 -18.6393 -22.0145  76.6935  61.8833  45.5560  27.4845  13.8768 149.0420 113.3939  91.2538  77.8312  65.3272  93.1582  76.3655  79.5584  75.3038  76.8482  75.2137  74.5365  79.7963  79.2522  78.4155  75.0229  75.0021  73.6359  74.0393  74.6023  83.8196  82.9723  77.2069  73.3962  76.0743  76.6253  79.7616  73.1536  25.7986  28.7902  38.0194  33.6929  30.8585  69.2549 116.2516  68.4742 # Blackbody T = 160.000
  12.3705  11.3640  10.2872  11.1978   7.5513  11.0433   5.5470  -0.2906  -0.9890  -3.2517  -4.2959  -5.3436  -0.7784  -1.0780  26.3703  26.2551  27.4117  27.2236  17.0304  27.1400  26.7188  25.3451  21.3766  21.5856  17.0436  16.4728  16.4477   6.5662   6.0203   4.7073   0.7321   2.9443   1.8077  -0.0147   0.0534  -2.1861  -2.3920  -3.2774  -4.1343  -4.7205  -4.8050  -4.9700  -5.3027  -7.9255 -11.5343 -13.7978 -14.6994 -15.4418 -16.2708 -17.0250 -17.5144 -18.0825  24.6707  25.1024  24.7920  24.3338  22.7869 187.0227 138.0256 106.9250  80.0139  74.4570 187.6782 138.6689 101.7730  74.3747  56.3144  41.4539  26.2730  14.2005  -0.0022  -6.2819 -13.7034 -14.2384 -17.5282 -19.1347 -19.6366  41.6760  26.1852  15.0000   0.2132  -4.4254  -8.0164 -11.8110 -17.8730 -19.5404 -19.9670  75.4667  41.6332  14.9120   1.2018  -4.9126 -14.6586 -17.6947  69.7743  56.6420  42.1976  26.1667  14.0341 134.1802 102.5040  82.7529  70.7985  59.9896  84.7485  70.9705  73.8627  69.9460  71.5654  69.9354  69.2587  74.1992  73.6266  72.7762  68.4686  69.7541  68.4576  68.8531  69.4573  78.6267  77.5210  72.0754  68.2613  70.9210  71.4935  74.5624  67.3799  25.1451  27.8286  37.0241  32.2459  29.1722  63.9194 106.4170  63.1638 # Blackbody T = 180.000
  14.2707  13.4648  12.3570  13.3075   9.7197  13.0970   6.8053   1.3261   0.6249  -1.4006  -2.2738  -3.2676   1.3416   1.0513  26.4003  26.2994  27.4417  27.2352  17.0819  26.9325  25.9571  25.1139  20.7313  20.8545  16.9008  16.2998  16.2315   8.4927   7.0673   5.7855   2.3252   4.1350   3.1447   1.5566   1.5692  -0.4577  -0.6219  -1.4270  -2.1336  -2.7173  -2.7990  -2.9427  -3.2355  -5.5517  -8.7648 -10.7919 -11.5969 -12.2478 -12.9794 -13.6450 -14.0742 -14.5742  24.6707  25.1024  24.7920  24.3338  22.7869 169.9676 126.1056  98.1834  73.9960  68.5839 170.5140 126.6322  93.6821  68.9561  52.6535  38.9081  25.1735  14.3303   1.6202  -4.0297 -10.6338 -11.1002 -14.0577 -15.4823 -15.9329  39.0560  25.0812  15.0000   1.7531  -2.4084  -5.6197  -8.9933 -14.3889 -15.8600 -16.2422  69.6225  39.0414  14.9351   2.6629  -2.8357 -11.4797 -14.2326  64.2268  52.4327  39.4806  25.1001  14.1567 122.2720  93.7759  75.9466  65.1661  55.6806  77.9823  66.6403  69.2970  65.6628  67.3321  65.7075  65.0312  69.7210  69.1262  68.2498  63.1972  65.5495  64.3110  64.7022  65.3445  74.4633  73.1513  67.9736  64.1570  66.8041  67.3914  70.3170  62.5385  24.6329  27.0688  36.0533  30.8434  27.8019  59.6293  98.3874  58.8690 # Blackbody T = 200.000
  15.7669  15.1638  14.0256  15.0113  11.4912  14.6377   7.7115   2.6473   1.9524   0.1217  -0.6197  -1.5614   3.0696   2.7885  26.4243  26.3346  27.4651  27.2287  17.1197  26.4929  25.0934  24.6645  20.2018  20.2539  16.7812  16.1600  16.0627   9.8792   7.8847   6.6477   3.6258   5.1174   4.2421   2.8418   2.8141   0.9648   0.8318   0.0947  -0.4973  -1.0704  -1.1494  -1.2756  -1.5365  -3.6054  -6.4949  -8.3260  -9.0508  -9.6282 -10.2807 -10.8744 -11.2554 -11.7006  24.6707  25.1024  24.7920  24.3338  22.7869 155.9928 116.3294  91.0196  69.0546  63.7651 156.4446 116.7662  87.0499  64.5042  49.6349  36.8138  24.2698  14.4330   2.9414  -2.1908  -8.1270  -8.5358 -11.2162 -12.4945 -12.9036  36.8986  24.1745  15.0000   3.0131  -0.7568  -3.6569  -6.6866 -11.5350 -12.8493 -13.1958  64.8028  36.9019  14.9523   3.8575  -1.1362  -8.8834 -11.3963  59.6804  48.9794  37.2430  24.2191  14.2545 112.5168  86.6236  70.3733  60.5524  52.1214  72.4239  63.0844  65.5532  62.1607  63.8631  62.2444  61.5687  66.0562  65.4436  64.4937  58.8730  62.1044  60.9138  61.3037  61.9817  71.0488  69.5681  64.6196  60.8014  63.4395  64.0372  66.5306  58.4364  24.2220  26.4545  34.9187  29.5795  26.6708  56.0995  91.5451  55.3139 # Blackbody T = 220.000
  16.9670  16.5599  15.3925  16.4057  12.9618  15.6287   8.4210   3.7470   3.0643   1.3963   0.7587  -0.1337   4.5035   4.2313  26.4436  26.3630  27.4833  27.1833  17.1469  25.8803  24.2817  24.0688  19.7594  19.7557  16.6789  16.0449  15.9284  10.7868   8.5511   7.3614   4.7067   5.9422   5.1597   3.9125   3.8552   2.1566   2.0476   1.3688   0.8660   0.3080   0.2317   0.1201  -0.1147  -1.9804  -4.6003  -6.2661  -6.9236  -7.4408  -8.0280  -8.5623  -8.9041  -9.3045  24.6707  25.1024  24.7920  24.3338  22.7869 144.3282 108.1625  85.0380  64.9202  59.7385 144.6989 108.5290  81.5119  60.7771  47.0987  35.0595  23.5133  14.5158   4.0372  -0.6608  -6.0413  -6.4013  -8.8474 -10.0056 -10.3807  35.0913  23.4159  15.0000   4.0631   0.6207  -2.0195  -4.7632  -9.1551 -10.3417 -10.6588  60.7570  35.1067  14.9655   4.8523   0.2804  -6.7237  -9.0307  55.8865  46.0956  35.3699  23.4787  14.3340 104.3790  80.6550  65.7249  56.7029  49.1270  67.7777  60.1095  62.4257  59.2439  60.9678  59.3555  58.6806  63.0012  62.3738  61.2383  55.2633  59.2295  58.0784  58.4689  59.1812  68.1959  66.5741  61.8257  58.0067  60.6381  61.2433  62.8518  54.9449  23.8857  25.9481  33.6451  28.4768  25.7222  53.1402  85.5799  52.3162 # Blackbody T = 240.000
  17.9464  17.7217  16.5265  17.5575  14.1981  16.1104   9.0027   4.6763   4.0095   2.4794   1.9249   1.0790   5.7111   5.4472  26.4589  26.3860  27.4972  27.0575  17.1658  25.2150  23.5622  23.4390  19.3842  19.3374  16.5897  15.9489  15.8195  11.3560   9.1081   7.9647   5.6183   6.6450   5.9388   4.8182   4.7393   3.1700   3.0798   2.4515   2.0195   1.4791   1.4053   1.3060   1.0929  -0.6027  -2.9948  -4.5196  -5.1198  -5.5868  -6.1193  -6.6041  -6.9133  -7.2766  24.6707  25.1024  24.7920  24.3338  22.7869 134.4407 101.2349  79.9650  61.4063  56.3223 134.7423 101.5453  76.8156  57.6073  44.9341  33.5676  22.8702  14.5834   4.9604   0.6321  -4.2791  -4.5973  -6.8429  -7.9011  -8.2476  33.5554  22.7714  15.0000   4.9517   1.7873  -0.6326  -3.1349  -7.1407  -8.2214  -8.5140  57.3111  33.5792  14.9757   5.6931   1.4795  -4.8995  -7.0280  52.6721  43.6511  33.7797  22.8472  14.3997  97.4868  75.5982  61.7880  53.4413  46.5697  63.8366  57.5820  59.7725  56.7771  58.5144  56.9089  56.2346  60.4150  59.7752  58.2826  52.2045  56.7936  55.6746  56.0673  56.8128  65.7744  64.0325  59.4621  55.6431  58.2691  58.8802  59.3738  51.9537  23.6059  25.5237  32.3868  27.5212  24.9151  50.6200  80.3705  49.7504 # Blackbody T = 260.000
  18.7589  18.6987  17.4768  18.5141  15.2478  16.2807   9.4925   5.4719   4.8232   3.4116   2.9245   2.1220   6.7407   6.4847  26.4711  26.4046  27.5068  26.8042  17.1781  24.5739  22.9331  22.8409  19.0618  18.9819  16.5107  15.8676  15.7300  11.7317   9.5812   8.4826   6.3968   7.2513   6.6087   5.5942   5.4996   4.0426   3.9673   3.3832   3.0082   2.4866   2.4152   2.3265   2.1317   0.5803  -1.6168  -3.0199  -3.5708  -3.9957  -4.4818  -4.9246  -5.2066  -5.5386  24.6707  25.1024  24.7920  24.3338  22.7869 125.9498  95.2819  75.6049  58.3800  53.3864 126.1927  95.5470  72.7804  54.8753  43.0619  32.2826  22.3163  14.6393   5.7485   1.7393  -2.7707  -3.0526  -5.1250  -6.0989  -6.4212  32.2336  22.2165  15.0000   5.7134   2.7881   0.5575  -1.7385  -5.4141  -6.4057  -6.6776  54.3399  32.2636  14.9836   6.4131   2.5077  -3.3386  -5.3112  49.9136  41.5525  32.4127  22.3018  14.4548  91.5740  71.2583  58.4103  50.6419  44.3584  60.4513  55.4063  57.4920  54.6637  56.4085  54.8100  54.1365  58.1970  57.5466  55.5384  49.5789  54.7029  53.6097  54.0060  54.7837  63.6910  61.8455  57.4361  53.6178  56.2392  56.8551  56.2527  49.3703  23.3698  25.1629  31.2326  26.6903  24.2199  48.4454  75.8265  47.5268 # Blackbody T = 280.000
  19.4431  19.5271  18.2799  19.3081  16.1459  16.3154   9.9120   6.1606   5.5313   4.2223   3.7909   3.0288   7.6278   7.3794  26.4806  26.4196  27.5109  26.4111  17.1851  23.9854  22.3827  22.2973  18.7818  18.6763  16.4399  15.7980  15.6554  12.0042   9.9884   8.9324   7.0686   7.7797   7.1912   6.2666   6.1605   4.8018   4.7388   4.1936   3.8652   3.3627   3.2935   3.2139   3.0348   1.6072  -0.4211  -1.7183  -2.2265  -2.6154  -3.0618  -3.4688  -3.7275  -4.0329  24.6707  25.1024  24.7920  24.3338  22.7869 118.5765  90.1097  71.8144  55.7439  50.8354 118.7696  90.3375  69.2740  52.4934  41.4241  31.1634  21.8340  14.6861   6.4288   2.6981  -1.4651  -1.7154  -3.6370  -4.5387  -4.8403  31.0839  21.7336  15.0000   6.3737   3.6563   1.5899  -0.5279  -3.9182  -4.8340  -5.0881  51.7512  31.1184  14.9899   7.0363   3.3992  -1.9882  -3.8237  47.5201  39.7310  31.2251  21.8258  14.5015  86.4452  67.4924  55.4799  48.2123  42.4263  57.5117  53.5127  55.5098  52.8327  54.5809  52.9895  52.3168  56.2734  55.6138  53.0083  47.3000  52.8885  51.8157  52.2167  53.0259  61.8770  59.9413  55.6799  51.8631  54.4800  55.1002  53.5022  47.1201  23.1682  24.8521  30.2011  25.9629  23.6143  46.5474  71.8518  45.5794 # Blackbody T = 300.000
  20.0268  20.2349  18.9630  19.9586  16.9178  16.2992  10.2759   6.7626   6.1531   4.9340   4.5490   3.8246   8.3993   8.1580  26.4879  26.4315  27.5061  25.9182  17.1878  23.4541  21.8986  21.8108  18.5362  18.4112  16.3758  15.7379  15.5926  12.2185  10.3425   9.3269   7.6538   8.2446   7.7022   6.8548   6.7406   5.4686   5.4156   4.9049   4.6151   4.1317   4.0644   3.9929   3.8274   2.5071   0.6262  -0.5781  -1.0490  -1.4069  -1.8191  -2.1951  -2.4339  -2.7164  24.6707  25.1024  24.7920  24.3338  22.7869 112.1116  85.5725  68.4861  53.4250  48.5976 112.2624  85.7693  66.1969  50.3961  39.9773  30.1793  21.4100  14.7255   7.0220   3.5366  -0.3241  -0.5467  -2.3359  -3.1754  -3.4589  30.0743  21.3093  15.0000   6.9516   4.4166   2.4941   0.5318  -2.6101  -3.4606  -3.6993  49.4749  30.1123  14.9949   7.5808   4.1797  -0.8086  -2.5228  45.4233  38.1350  30.1835  21.4063  14.5414  81.9539  64.1932  52.9129  46.0833  40.7230  54.9350  51.8485  53.7701  51.2312  52.9797  51.3955  50.7235  54.5888  53.9211  50.7082  45.3030  51.2988  50.2418  50.6483  51.4883  60.2807  58.2662  54.1425  50.3278  52.9405  53.5646  51.0790  45.1437  22.9942  24.5811  29.2844  25.3213  23.0818  44.8747  68.3557  43.8585 # Blackbody T = 320.000
  20.5307  20.8436  19.5468  20.4703  17.5808  16.2650  10.5946   7.2932   6.7036   5.5639   5.2179   4.5286   9.0755   8.8409  26.4932  26.4410  27.4855  25.3844  17.1869  22.9765  21.4703  21.3769  18.3191  18.1791  16.3173  15.6854  15.5392  12.3968  10.6531   9.6760   8.1675   8.6567   8.1544   7.3736   7.2538   6.0590   6.0143   5.5345   5.2768   4.8120   4.7466   4.6822   4.5285   3.3022   1.5511   0.4289  -0.0093  -0.3403  -0.7226  -1.0718  -1.2933  -1.5558  24.6707  25.1024  24.7920  24.3338  22.7869 106.3952  81.5589  65.5380  51.3677  46.6181 106.5101  81.7296  63.4728  48.5330  38.6882  29.3069  21.0342  14.7592   7.5437   4.2760   0.6815   0.4833  -1.1889  -1.9742  -2.2420  29.1806  20.9333  15.0000   7.4615   5.0880   3.2926   1.4670  -1.4568  -2.2506  -2.4759  47.4575  29.2212  14.9989   8.0607   4.8686   0.2303  -1.3758  43.5711  36.7251  29.2626  21.0337  14.5761  77.9876  61.2785  50.6453  44.2020  39.2097  52.6574  50.3738  52.2302  49.8185  51.5650  49.9879  49.3168  53.1005  52.4259  48.6341  43.5381  49.8941  48.8491  49.2617  50.1321  58.8627  56.7792  52.7852  48.9733  51.5812  52.2091  48.9335  43.3945  22.8426  24.3419  28.4680  24.7511  22.6097  43.3879  65.2609  42.3259 # Blackbody T = 340.000
  20.9702  21.3704  20.0459  20.8369  18.1444  16.2252  10.8762   7.7644   7.1944   6.1254   5.8126   5.1558   9.6723   9.4441  26.4969  26.4483  27.4377  24.8533  17.1831  22.5465  21.0888  20.9894  18.1257  17.9742  16.2636  15.6393  15.4932  12.5503  10.9278   9.9871   8.6218   9.0247   8.5574   7.8346   7.7111   6.5853   6.5477   6.0957   5.8651   5.4183   5.3547   5.2965   5.1532   4.0098   2.3738   1.3245   0.9153   0.6078   0.2517  -0.0739  -0.2803  -0.5254  24.6707  25.1024  24.7920  24.3338  22.7869 101.3031  77.9821  62.9064  49.5284  44.8541 101.3874  78.1306  61.0426  46.8653  37.5309  28.5277  20.6986  14.7880   8.0060   4.9331   1.5742   1.3977  -0.1706  -0.9083  -1.1621  28.3835  20.5977  15.0000   7.9149   5.6852   4.0029   2.2984  -0.4329  -1.1769  -1.3902  45.6568  28.4262  15.0021   8.4867   5.4812   1.1522  -0.3572  41.9229  35.4702  28.4423  20.7004  14.6062  74.4591  58.6845  48.6271  42.5273  37.8562  50.6295  49.0572  50.8570  48.5631  50.3061  48.7360  48.0657  51.7747  51.0943  46.7674  41.9666  48.6436  47.6072  48.0267  48.9269  57.5923  55.4485  51.5778  47.7693  50.3716  51.0027  47.0219  41.8356  22.7093  24.1282  27.7374  24.2409  22.1881  42.0563  62.5037  40.9516 # Blackbody T = 360.000
  21.3570  21.8286  20.4694  21.0523  18.6109  16.1844  11.1267   8.1856   7.6348   6.6290   6.3447   5.7183  10.2023   9.9802  26.4992  26.4538  27.3472  24.3477  17.1768  22.1581  20.7471  20.6421  17.9524  17.7922  16.2140  15.5985  15.4535  12.6854  11.1723  10.2661   9.0260   9.3552   8.9187   8.2470   8.1212   7.0576   7.0259   6.5990   6.3916   5.9621   5.9000   5.8474   5.7135   4.6436   3.1102   2.1260   1.7426   1.4559   1.1229   0.8182   0.6250   0.3953  24.6707  25.1024  24.7920  24.3338  22.7869  96.7371  74.7735  60.5410  47.8733  43.2719  96.7953  74.9030  58.8592  45.3622  36.4849  27.8271  20.3969  14.8129   8.4185   5.5207   2.3719   2.2148   0.7393   0.0438  -0.1977  27.6681  20.2963  15.0000   8.3206   6.2200   4.6389   3.0422   0.4821  -0.2180  -0.4207  44.0393  27.7124  15.0047   8.8673   6.0295   1.9756   0.5530  40.4465  34.3462  27.7070  20.4003  14.6328  71.2994  56.3607  46.8191  41.0266  36.6383  48.8120  47.8740  49.6243  47.4401  49.1783  47.6151  46.9456  50.5836  49.8991  45.0844  40.5581  47.5230  46.4925  46.9193  47.8489  56.4453  54.2490  50.4964  46.6919  49.2868  49.9196  45.3084  40.4375  22.5914  23.9349  27.0801  23.7814  21.8090  40.8559  60.0322  39.7118 # Blackbody T = 380.000
  21.7001  22.2290  20.8206  21.1255  18.9767  16.1445  11.3511   8.5643   8.0322   7.0832   6.8236   6.2255  10.6755  10.4593  26.5004  26.4577  27.1990  23.8761  17.1685  21.8058  20.4392  20.3295  17.7961  17.6295  16.1679  15.5622  15.4188  12.8061  11.3913  10.5179   9.3877   9.6539   9.2447   8.6181   8.4911   7.4838   7.4572   7.0531   6.8655   6.4525   6.3918   6.3443   6.2186   5.2145   3.7731   2.8475   2.4872   2.2188   1.9063   1.6201   1.4388   1.2227  24.6707  25.1024  24.7920  24.3338  22.7869  92.6189  71.8784  58.4020  46.3748  41.8443  92.6546  71.9915  56.8852  43.9993  35.5341  27.1938  20.1242  14.8346   8.7889   6.0495   3.0889   2.9492   1.5570   0.8990   0.6686  27.0222  20.0239  15.0000   8.6858   6.7016   5.2116   3.7115   1.3044   0.6434   0.4502  42.5782  27.0679  15.0068   9.2094   6.5232   2.7153   1.3711  39.1163  33.3335  27.0440  20.1287  14.6563  68.4533  54.2665  45.1896  39.6740  35.5365  47.1735  46.8046  48.5111  46.4295  48.1621  46.6057  45.9370  49.5025  48.8164  43.5619  39.2881  46.5128  45.4857  45.9204  46.8788  55.4026  53.1609  49.5220  45.7221  48.3059  48.9362  43.7637  39.1762  22.4862  23.7578  26.4858  23.3652  21.4663  39.7672  57.8044  38.5870 # Blackbody T = 400.000
  22.0067  22.5791  21.0977  21.0851  19.2374  16.1062  11.5531   8.9068   8.3926   7.4951   7.2569   6.6851  11.1001  10.8894  26.5005  26.4602  26.9847  23.4404  17.1585  21.4849  20.1605  20.0469  17.6545  17.4831  16.1250  15.5297  15.3883  12.9148  11.5885  10.7462   9.7131   9.9250   9.5402   8.9538   8.8264   7.8703   7.8481   7.4647   7.2943   6.8970   6.8377   6.7948   6.6765   5.7315   4.3730   3.5001   3.1605   2.9085   2.6144   2.3448   2.1739   1.9700  24.6707  25.1024  24.7920  24.3338  22.7869  88.8848  69.2523  56.4569  45.0109  40.5496  88.9012  69.3510  55.0902  42.7567  34.6651  26.6180  19.8765  14.8536   9.1231   6.5277   3.7367   3.6127   2.2956   1.6711   1.4507  26.4362  19.7767  15.0000   9.0163   7.1376   5.7300   4.3168   2.0472   1.4212   1.2365  41.2516  26.4828  15.0085   9.5184   6.9700   3.3832   2.1101  37.9116  32.4163  26.4431  19.8816  14.6772  65.8760  52.3694  43.7133  38.4485  34.5351  45.6886  45.8329  47.5005  45.5153  47.2417  45.6919  45.0241  48.5084  47.8246  42.1794  38.1368  45.5972  44.5716  45.0145  46.0013  54.4489  52.1683  48.6392  44.8445  47.4102  48.0287  42.3639  38.0325  22.3918  23.5934  25.9456  22.9862  21.1549  38.7747  55.7860  37.5618 # Blackbody T = 420.000
  22.2822  22.8843  21.2955  20.9684  19.3943  16.0698  11.7359   9.2178   8.7210   7.8702   7.6508   7.1037  11.4828  11.2774  26.4997  26.4613  26.7084  23.0391  17.1471  21.1913  19.9070  19.7904  17.5255  17.3508  16.0849  15.5003  15.3614  13.0137  11.7671  10.9542  10.0071  10.1722   9.8094   9.2589   9.1318   8.2224   8.2040   7.8396   7.6841   7.3018   7.2438   7.2050   7.0934   6.2017   4.9183   4.0932   3.7723   3.5349   3.2574   3.0026   2.8411   2.6481  24.6707  25.1024  24.7920  24.3338  22.7869  85.4829  66.8587  54.6794  43.7635  39.3696  85.4826  66.9448  53.4492  41.6183  33.8671  26.0923  19.6503  14.8702   9.4263   6.9623   4.3248   4.2149   2.9659   2.3716   2.1602  25.9018  19.5511  15.0000   9.3168   7.5341   6.2014   4.8669   2.7213   2.1267   1.9497  40.0416  25.9493  15.0098   9.7990   7.3763   3.9893   2.7808  36.8153  31.5816  25.8960  19.6557  14.6959  63.5310  50.6425  42.3694  37.3327  33.6209  44.3364  44.9457  46.5787  44.6843  46.4041  44.8607  44.1937  47.5778  46.9020  40.9188  37.0881  44.7634  43.7375  44.1889  45.2037  53.5719  51.2582  47.8356  44.0463  46.5813  47.1708  41.0892  36.9905  22.3065  23.4387  25.4524  22.6395  20.8705  37.8655  53.9487  36.6230 # Blackbody T = 440.000
  22.5312  23.1465  21.4102  20.8083  19.4585  16.0353  11.9022   9.5016   9.0214   8.2133   8.0104   7.4863  11.8291  11.6288  26.4981  26.4611  26.3847  22.6697  17.1344  20.9218  19.6754  19.5565  17.4076  17.2306  16.0472  15.4738  15.3375  13.1041  11.9295  11.1445  10.2740  10.3986  10.0555   9.5374   9.4111   8.5445   8.5294   8.1826   8.0401   7.6719   7.6151   7.5800   7.4745   6.6313   5.4161   4.6344   4.3304   4.1063   3.8436   3.6022   3.4492   3.2660  24.6707  25.1024  24.7920  24.3338  22.7869  82.3703  64.6675  53.0477  42.6177  38.2897  82.3555  64.7426  51.9418  40.5707  33.1313  25.6102  19.4430  14.8850   9.7025   7.3589   4.8609   4.7638   3.5767   3.0098   2.8066  25.4126  19.3444  15.0000   9.5912   7.8963   6.6319   5.3687   3.3355   2.7695   2.5995  38.9332  25.4607  15.0110  10.0549   7.7473   4.5416   3.3920  35.8133  30.8188  25.3956  19.4485  14.7128  61.3880  49.0636  41.1405  36.3127  32.7831  43.0996  44.1323  45.7341  43.9257  45.6385  44.1013  43.4352  46.6870  46.0264  39.7650  36.1287  44.0006  42.9730  43.4332  44.4756  52.7615  50.4199  47.1006  43.3173  45.8001  46.3330  39.9236  36.0369  22.2290  23.2914  25.0002  22.3210  20.6098  37.0291  52.2690  35.7598 # Blackbody T = 460.000
  22.7574  23.3648  21.4434  20.6277  19.4494  16.0026  12.0540   9.7615   9.2972   8.5283   8.3400   7.8375  12.1435  11.9481  26.4959  26.4595  26.0323  22.3290  17.1208  20.6734  19.4631  19.3425  17.2993  17.1210  16.0119  15.4497  15.3161  13.1870  12.0778  11.3192  10.5172  10.6067  10.2815   9.7926   9.6676   8.8402   8.8281   8.4973   8.3663   8.0116   7.9559   7.9243   7.8244   7.0252   5.8722   5.1300   4.8416   4.6293   4.3801   4.1508   4.0055   3.8313  24.6707  25.1024  24.7920  24.3338  22.7869  79.5112  62.6538  51.5439  41.5610  37.2974  79.4838  62.7191  50.5509  39.6029  32.4501  25.1664  19.2523  14.8981   9.9553   7.7224   5.3515   5.2661   4.1355   3.5934   3.3977  24.9629  19.1544  15.0000   9.8428   8.2285   7.0265   5.8285   3.8975   3.3573   3.1937  37.9140  25.0114  15.0119  10.2891   8.0874   5.0468   3.9512  34.8939  30.1190  24.9363  19.2576  14.7281  59.4219  47.6145  40.0123  35.3763  32.0123  41.9640  43.3835  44.9571  43.2303  44.9360  43.4049  42.7396  45.8143  45.1762  38.7050  35.2474  43.2999  42.2695  42.7386  43.8082  52.0096  49.6448  46.4258  42.6485  45.0464  45.4877  38.8534  35.1609  22.1581  23.1495  24.5839  22.0272  20.3698  36.2565  50.7273  34.9633 # Blackbody T = 480.000
  22.9636  23.5355  21.4051  20.4405  19.3886  15.9716  12.1931  10.0005   9.5514   8.8184   8.6432   8.1609  12.4299  12.2393  26.4932  26.4560  25.6684  22.0144  17.1063  20.4437  19.2676  19.1460  17.1996  17.0207  15.9786  15.4277  15.2969  13.2636  12.2137  11.4802  10.7395  10.7986  10.4898  10.0274   9.9038   9.1128   9.1033   8.7873   8.6665   8.3245   8.2698   8.2414   8.1465   7.3876   6.2915   5.5856   5.3112   5.1098   4.8729   4.6547   4.5163   4.3503  24.6707  25.1024  24.7920  24.3338  22.7869  76.8754  60.7962  50.1527  40.5829  36.3824  76.8369  60.8529  49.2624  38.7056  31.8174  24.7563  19.0762  14.9098  10.1874   8.0566   5.8022   5.7274   4.6484   4.1291   3.9402  24.5481  18.9791  15.0000  10.0742   8.5341   7.3896   6.2510   4.4134   3.8968   3.7391  36.9736  24.5969  15.0126  10.5043   8.4003   5.5106   4.4646  34.0473  29.4746  24.5132  19.0812  14.7420  57.6114  46.2794  38.9729  34.5138  31.3010  40.9173  42.6918  44.2399  42.5906  44.2891  42.7639  42.0993  44.9439  44.3332  37.7277  34.4348  42.6540  41.6197  42.0980  43.1943  51.3093  48.9254  45.8037  42.0326  44.3008  44.6172  37.8672  34.3532  22.0927  23.0113  24.1993  21.7552  20.1482  35.5403  49.3072  34.2258 # Blackbody T = 500.000
  23.1523  23.6529  21.3109  20.2545  19.2949  15.9423  12.3211  10.2209   9.7864   9.0866   8.9230   8.4597  12.6917  12.5057  26.4899  26.4500  25.3055  21.7232  17.0911  20.2306  19.0872  18.9649  17.1075  16.9285  15.9471  15.4076  15.2796  13.3345  12.3387  11.6291  10.9436  10.9761  10.6823  10.2440  10.1221   9.3647   9.3575   9.0553   8.9435   8.6136   8.5599   8.5344   8.4442   7.7222   6.6784   6.0057   5.7442   5.5527   5.3269   5.1188   4.9868   4.8282  24.6707  25.1024  24.7920  24.3338  22.7868  74.4375  59.0771  48.8615  39.6747  35.5358  74.3894  59.1260  48.0641  37.8708  31.2277  24.3763  18.9131  14.9202  10.4013   8.3650   6.2174   6.1523   5.1209   4.6223   4.4398  24.1642  18.8167  15.0000  10.2879   8.8162   7.7246   6.6407   4.8886   4.3936   4.2412  36.1030  24.2133  15.0131  10.7027   8.6891   5.9378   4.9375  33.2651  28.8794  24.1220  18.9176  14.7547  55.9387  45.0454  38.0121  33.7166  30.6426  39.9495  42.0506  43.5755  42.0001  43.6914  42.1719  41.5081  44.0694  43.4869  36.8238  33.6832  42.0564  41.0174  41.5050  42.6277  50.6551  48.2557  45.2285  41.4633  43.5480  43.7210  36.9553  33.6059  22.0320  22.8758  23.8430  21.5025  19.9429  34.8743  47.9948  33.5408 # Blackbody T = 520.000
  23.3256  23.7115  21.1777  20.0738  19.1826  15.9144  12.4392  10.4249  10.0042   9.3351   9.1820   8.7365  12.9315  12.7500  26.4862  26.4407  24.9514  21.4529  17.0753  20.0324  18.9201  18.7975  17.0220  16.8434  15.9173  15.3890  15.2639  13.4003  12.4540  11.7672  11.1313  11.1408  10.8607  10.4445  10.3245   9.5982   9.5931   9.3037   9.1999   8.8815   8.8287   8.8059   8.7199   8.0319   7.0362   6.3942   6.1445   5.9620   5.7465   5.5476   5.4215   5.2698  24.6707  25.1024  24.7920  24.3338  22.7867  72.1758  57.4812  47.6593  38.8286  34.7500  72.1191  57.5232  46.9461  37.0920  30.6766  24.0230  18.7615  14.9297  10.5990   8.6503   6.6011   6.5450   5.5573   5.0779   4.9011  23.8079  18.6660  15.0000  10.4857   9.0775   8.0348   7.0011   5.3275   4.8524   4.7050  35.2947  23.8571  15.0136  10.8862   8.9565   6.3324   5.3743  32.5403  28.3278  23.7594  18.7656  14.7663  54.3884  43.9013  37.1210  32.9775  30.0312  39.0517  41.4546  42.9583  41.4534  43.1374  41.6235  40.9603  43.1945  42.6360  35.9853  32.9856  41.5018  40.4574  40.9544  42.1030  50.0420  47.6303  44.6947  40.9349  42.7813  42.8126  36.1097  32.9123  21.9751  22.7418  23.5117  21.2672  19.7521  34.2531  46.7780  32.9026 # Blackbody T = 540.000
  23.4849  23.7095  21.0207  19.9005  19.0612  15.8879  12.5485  10.6141  10.2068   9.5661   9.4224   8.9937  13.1518  12.9746  26.4822  26.4265  24.6104  21.2015  17.0590  19.8475  18.7649  18.6423  16.9426  16.7647  15.8891  15.3720  15.2497  13.4616  12.5608  11.8956  11.3047  11.2941  11.0266  10.6306  10.5127   9.8153   9.8120   9.5346   9.4380   9.1304   9.0785   9.0582   8.9761   8.3194   7.3682   6.7543   6.5156   6.3414   6.1353   5.9449   5.8242   5.6787  24.6707  25.1024  24.7920  24.3338  22.7866  70.0717  55.9954  46.5368  38.0384  34.0188  70.0074  56.0312  45.8996  36.3633  30.1602  23.6937  18.6204  14.9381  10.7823   8.9151   6.9567   6.9089   5.9616   5.4998   5.3284  23.4763  18.5257  15.0000  10.6694   9.3201   8.3226   7.3353   5.7341   5.2773   5.1346  34.5421  23.5255  15.0139  11.0563   9.2047   6.6980   5.7790  31.8666  27.8152  23.4222  18.6239  14.7769  52.9475  42.8374  36.2924  32.2905  29.4622  38.2166  40.8989  42.3832  40.9457  42.6226  41.1140  40.4514  42.3285  41.7874  35.2052  32.3364  40.9855  39.9353  40.4416  41.6159  49.4661  47.0449  44.1979  40.4425  42.0032  41.9108  35.3231  32.2668  21.9213  22.6090  23.2028  21.0474  19.5743  33.6719  45.6467  32.3065 # Blackbody T = 560.000
  23.6315  23.6497  20.8513  19.7353  18.9367  15.8627  12.6500  10.7902  10.3955   9.7813   9.6461   9.2332  13.3547  13.1816  26.4778  26.4057  24.2848  20.9671  17.0422  19.6746  18.6204  18.4981  16.8686  16.6917  15.8624  15.3562  15.2367  13.5188  12.6599  12.0153  11.4651  11.4370  11.1812  10.8038  10.6880  10.0176  10.0160   9.7496   9.6595   9.3623   9.3111   9.2932   9.2147   8.5870   7.6769   7.0892   6.8605   6.6939   6.4965   6.3140   6.1982   6.0586  24.6707  25.1024  24.7920  24.3338  22.7863  68.1090  54.6085  45.4861  37.2982  33.3364  68.0380  54.6388  44.9174  35.6798  29.6751  23.3859  18.4885  14.9458  10.9527   9.1615   7.2872   7.2470   6.3371   5.8916   5.7252  23.1668  18.3948  15.0000  10.8404   9.5459   8.5905   7.6460   6.1118   5.6719   5.5335  33.8396  23.2160  15.0142  11.2145   9.4357   7.0376   6.1549  31.2390  27.3377  23.1080  18.4914  14.7867  51.6048  41.8456  35.5197  31.6501  28.9313  37.4376  40.3794  41.8459  40.4731  42.1429  40.6395  39.9771  41.4816  40.9509  34.4776  31.7306  40.5037  39.4472  39.9629  41.1624  48.9239  46.4956  43.7342  39.9817  41.2228  41.0314  34.5896  31.6645  21.8699  22.4767  22.9142  20.8415  19.4083  33.1270  44.5921  31.7482 # Blackbody T = 580.000
  23.7662  23.5407  20.6771  19.5784  18.8130  15.8387  12.7444  10.9544  10.5718   9.9823   9.8547   9.4568  13.5418  13.3727  26.4732  26.3759  23.9753  20.7481  17.0252  19.5126  18.4855  18.3637  16.7995  16.6239  15.8370  15.3415  15.2249  13.5724  12.7522  12.1271  11.6140  11.5706  11.3256  10.9654  10.8517  10.2066  10.2064   9.9505   9.8662   9.5788   9.5283   9.5125   9.4375   8.8366   7.9646   7.4011   7.1817   7.0222   6.8329   6.6576   6.5464   6.4121  24.6707  25.1024  24.7920  24.3338  22.7860  66.2738  53.3107  44.5002  36.6033  32.6982  66.1968  53.3360  43.9931  35.0373  29.2184  23.0976  18.3651  14.9528  11.1115   9.3912   7.5949   7.5618   6.6867   6.2563   6.0945  22.8774  18.2723  15.0000  10.9999   9.7566   8.8403   7.9356   6.4633   6.0392   5.9048  33.1822  22.9264  15.0144  11.3620   9.6513   7.3538   6.5048  30.6527  26.8917  22.8144  18.3674  14.7958  50.3503  40.9185  34.7975  31.0517  28.4347  36.7092  39.8927  41.3428  40.0320  41.6948  40.1964  39.5340  40.6621  40.1358  33.7972  31.1639  40.0528  38.9897  39.5148  40.7391  48.4124  45.9790  43.3001  39.5482  40.4511  40.1847  33.9039  31.1009  21.8204  22.3450  22.6438  20.6483  19.2528  32.6147  43.6066  31.2243 # Blackbody T = 600.000
  23.8894  23.3937  20.5034  19.4296  18.6921  15.8159  12.8324  11.1078  10.7369  10.1703  10.0498   9.6660  13.7148  13.5497  26.4682  26.3344  23.6818  20.5431  17.0079  19.3604  18.3593  18.2381  16.7347  16.5606  15.8128  15.3279  15.2140  13.6227  12.8382  12.2319  11.7524  11.6958  11.4608  11.1165  11.0049  10.3834  10.3847  10.1384  10.0594   9.7813   9.7316   9.7178   9.6459   9.0699   8.2334   7.6924   7.4817   7.3287   7.1468   6.9783   6.8713   6.7421  24.6707  25.1024  24.7920  24.3337  22.7855  64.5541  52.0934  43.5730  35.9495  32.0999  64.4717  52.1142  43.1212  34.4319  28.7876  22.8270  18.2494  14.9592  11.2598   9.6059   7.8822   7.8557   7.0129   6.5966   6.4391  22.6060  18.1574  15.0000  11.1491   9.9537   9.0738   8.2060   6.7914   6.3819   6.2511  32.5658  22.6549  15.0145  11.4998   9.8528   7.6489   6.8313  30.1038  26.4742  22.5394  18.2510  14.8043  49.1757  40.0501  34.1209  30.4914  27.9693  36.0265  39.4357  40.8705  39.6193  41.2752  39.7817  39.1186  39.8753  39.3491  33.1597  30.6325  39.6299  38.5600  39.0944  40.3430  47.9288  45.4923  42.8924  39.1382  39.6977  39.3760  33.2614  30.5725  21.7719  22.2137  22.3899  20.4665  19.1070  32.1321  42.6835  30.7314 # Blackbody T = 620.000
  24.0011  23.2205  20.3330  19.2886  18.5752  15.7941  12.9148  11.2516  10.8917  10.3467  10.2326   9.8620  13.8750  13.7138  26.4630  26.2782  23.4037  20.3507  16.9903  19.2172  18.2409  18.1206  16.6740  16.5014  15.7898  15.3152  15.2039  13.6699  12.9186  12.3302  11.8815  11.8133  11.5876  11.2581  11.1487  10.5493  10.5518  10.3147  10.2404   9.9712   9.9221   9.9102   9.8412   9.2885   8.4850   7.9650   7.7623   7.6154   7.4405   7.2782   7.1751   7.0505  24.6707  25.1024  24.7920  24.3336  22.7848  62.9389  50.9492  42.6993  35.3330  31.5378  62.8518  50.9660  42.2970  33.8604  28.3803  22.5725  18.1406  14.9650  11.3986   9.8070   8.1509   8.1305   7.3178   6.9146   6.7612  22.3511  18.0495  15.0000  11.2890  10.1383   9.2925   8.4591   7.0981   6.7022   6.5750  31.9865  22.3998  15.0146  11.6287  10.0416   7.9248   7.1366  29.5889  26.0826  22.2814  18.1415  14.8121  48.0734  39.2348  33.4857  29.9656  27.5322  35.3853  39.0056  40.4263  39.2324  40.8816  39.3926  38.7281  39.1237  38.5947  32.5610  30.1331  39.2324  38.1554  38.6991  39.9718  47.4708  45.0328  42.5082  38.7477  38.9692  38.6071  32.6580  30.0759  21.7241  22.0830  22.1510  20.2951  18.9698  31.6764  41.8170  30.2668 # Blackbody T = 640.000
  24.1009  23.0313  20.1680  19.1550  18.4630  15.7733  12.9919  11.3865  11.0372  10.5123  10.4041  10.0462  14.0237  13.8661  26.4574  26.2047  23.1402  20.1699  16.9726  19.0821  18.1298  18.0104  16.6169  16.4461  15.7678  15.3033  15.1947  13.7144  12.9940  12.4226  12.0020  11.9237  11.7068  11.3910  11.2838  10.7052  10.7088  10.4802  10.4104  10.1495  10.1011  10.0909  10.0246   9.4936   8.7209   8.2206   8.0254   7.8841   7.7156   7.5591   7.4598   7.3395  24.6707  25.1024  24.7920  24.3335  22.7838  61.4192  49.8716  41.8744  34.7506  31.0086  61.3278  49.8848  41.5165  33.3200  27.9947  22.3326  18.0381  14.9703  11.5289   9.9957   8.4027   8.3880   7.6035   7.2126   7.0630  22.1111  17.9480  15.0000  11.4203  10.3116   9.4978   8.6965   7.3854   7.0023   6.8783  31.4412  22.1596  15.0147  11.7497  10.2188   8.1833   7.4226  29.1049  25.7145  22.0388  18.0384  14.8194  47.0370  38.4679  32.8881  29.4712  27.1209  34.7818  38.6001  40.0077  38.8689  40.5115  39.0270  38.3597  38.4080  37.8742  31.9975  29.6629  38.8579  37.7737  38.3267  39.6230  47.0364  44.5983  42.1444  38.3730  38.2696  37.8777  32.0904  29.6083  21.6763  21.9531  21.9259  20.1333  18.8407  31.2455  41.0020  29.8280 # Blackbody T = 660.000
  24.1879  22.8339  20.0090  19.0283  18.3555  15.7533  13.0643  11.5134  11.1742  10.6683  10.5655  10.2194  14.1618  14.0079  26.4515  26.1116  22.8906  19.9995  16.9548  18.9546  18.0251  17.9067  16.5631  16.3941  15.7469  15.2922  15.1861  13.7563  13.0647  12.5096  12.1149  12.0278  11.8191  11.5160  11.4110  10.8520  10.8565  10.6361  10.5702  10.3173  10.2695  10.2610  10.1972   9.6865   8.9426   8.4606   8.2724   8.1364   7.9739   7.8229   7.7269   7.6107  24.6707  25.1024  24.7920  24.3333  22.7824  59.9864  48.8548  41.0942  34.1993  30.5096  59.8912  48.8647  40.7759  32.8079  27.6290  22.1060  17.9414  14.9752  11.6513  10.1731   8.6391   8.6298   7.8717   7.4923   7.3462  21.8849  17.8522  15.0000  11.5439  10.4747   9.6907   8.9194   7.6551   7.2839   7.1630  30.9267  21.9331  15.0147  11.8634  10.3854   8.4260   7.6911  28.6491  25.3679  21.8102  17.9410  14.8262  46.0605  37.7451  32.3248  29.0054  26.7333  34.2127  38.2170  39.6125  38.5269  40.1630  38.6825  38.0107  37.7276  37.1880  31.4664  29.2193  38.5044  37.4130  37.9751  39.2946  46.6235  44.1867  41.7980  38.0103  37.6006  37.1863  31.5553  29.1671  21.6281  21.8240  21.7132  19.9802  18.7188  30.8371  40.2339  29.4129 # Blackbody T = 680.000
  24.2605  22.6341  19.8567  18.9081  18.2530  15.7343  13.1325  11.6329  11.3034  10.8152  10.7174  10.3826  14.2903  14.1399  26.4451  25.9980  22.6539  19.8389  16.9368  18.8339  17.9264  17.8091  16.5123  16.3452  15.7268  15.2818  15.1782  13.7960  13.1313  12.5917  12.2207  12.1261  11.9249  11.6337  11.5309  10.9903  10.9958  10.7830  10.7207  10.4755  10.4282  10.4212  10.3599   9.8681   9.1513   8.6863   8.5047   8.3736   8.2167   8.0709   7.9781   7.8657  24.6707  25.1024  24.7920  24.3331  22.7805  58.6334  47.8936  40.3550  33.6766  30.0382  58.5347  47.9005  40.0722  32.3220  27.2815  21.8918  17.8500  14.9797  11.7665  10.3401   8.8615   8.8572   8.1238   7.7551   7.6124  21.6712  17.7617  15.0000  11.6603  10.6282   9.8724   9.1292   7.9087   7.5487   7.4307  30.4406  21.7191  15.0146  11.9705  10.5424   8.6542   7.9435  28.2190  25.0409  21.5946  17.8490  14.8326  45.1390  37.0626  31.7930  28.5659  26.3673  33.6752  37.8545  39.2386  38.2043  39.8341  38.3574  37.6783  37.0812  36.5351  30.9647  28.8001  38.1702  37.0716  37.6426  38.9849  46.2305  43.7962  41.4655  37.6561  36.9623  36.5310  31.0499  28.7502  21.5791  21.6962  21.5121  19.8351  18.6036  30.4495  39.5088  29.0194 # Blackbody T = 700.000
  24.3170  22.4356  19.7111  18.7938  18.1552  15.7161  13.1966  11.7456  11.4254  10.9540  10.8607  10.5367  14.4101  14.2631  26.4381  25.8638  22.4293  19.6871  16.9188  18.7195  17.8332  17.7171  16.4644  16.2992  15.7077  15.2720  15.1708  13.8335  13.1939  12.6693  12.3200  12.2189  12.0249  11.7449  11.6441  11.1210  11.1273  10.9216  10.8628  10.6247  10.5780  10.5725  10.5134  10.0394   9.3479   8.8991   8.7236   8.5971   8.4455   8.3044   8.2147   8.1059  24.6707  25.1024  24.7920  24.3326  22.7780  57.3535  46.9834  39.6537  33.1803  29.5921  57.2518  46.9877  39.4024  31.8603  26.9510  21.6889  17.7636  14.9839  11.8752  10.4977   9.0710   9.0714   8.3612   8.0027   7.8631  21.4690  17.6762  15.0000  11.7702  10.7732  10.0437   9.3269   8.1475   7.7981   7.6827  29.9806  21.5166  15.0146  12.0715  10.6905   8.8691   8.1812  27.8126  24.7320  21.3907  17.7618  14.8386  44.2678  36.4172  31.2901  28.1504  26.0211  33.1664  37.5110  38.8844  37.8997  39.5232  38.0499  37.3600  36.4670  35.9143  30.4902  28.4032  37.8536  36.7478  37.3276  38.6924  45.8558  43.4250  41.1429  37.3068  36.3542  35.9096  30.5719  28.3555  21.5287  21.5699  21.3215  19.6974  18.4945  30.0810  38.8231  28.6460 # Blackbody T = 720.000
  24.3552  22.2408  19.5720  18.6852  18.0620  15.6986  13.2572  11.8521  11.5408  11.0852  10.9962  10.6823  14.5218  14.3782  26.4303  25.7106  22.2160  19.5435  16.9008  18.6110  17.7451  17.6302  16.4190  16.2557  15.6893  15.2628  15.1639  13.8691  13.2531  12.7427  12.4135  12.3067  12.1195  11.8499  11.7513  11.2445  11.2517  11.0528  10.9970  10.7658  10.7196  10.7155  10.6585  10.2012   9.5336   9.0999   8.9302   8.8080   8.6614   8.5247   8.4379   8.3324  24.6707  25.1024  24.7920  24.3320  22.7748  56.1410  46.1203  38.9872  32.7082  29.1694  56.0364  46.1222  38.7641  31.4208  26.6362  21.4965  17.6816  14.9877  11.9778  10.6465   9.2687   9.2734   8.5852   8.2362   8.0996  21.2774  17.5951  15.0000  11.8741  10.9101  10.2056   9.5135   8.3727   8.0332   7.9204  29.5446  21.3246  15.0145  12.1669  10.8304   9.0718   8.4054  27.4279  24.4397  21.1977  17.6792  14.8442  43.4428  35.8058  30.8137  27.7571  25.6933  32.6843  37.1849  38.5483  37.6115  39.2289  37.7583  37.0529  35.8832  35.3240  30.0406  28.0269  37.5532  36.4402  37.0288  38.4156  45.4976  43.0713  40.8257  36.9596  35.7750  35.3198  30.1191  27.9812  21.4768  21.4452  21.1406  19.5665  18.3911  29.7301  38.1735  28.2909 # Blackbody T = 740.000
  24.3730  22.0511  19.4393  18.5819  17.9733  15.6818  13.3144  11.9529  11.6501  11.2094  11.1243  10.8201  14.6261  14.4858  26.4214  25.5409  22.0131  19.4073  16.8827  18.5079  17.6616  17.5479  16.3760  16.2146  15.6718  15.2541  15.1575  13.9028  13.3090  12.8123  12.5016  12.3900  12.2091  11.9493  11.8527  11.3616  11.3694  11.1769  11.1239  10.8994  10.8536  10.8508  10.7958  10.3543   9.7090   9.2896   9.1254   9.0072   8.8652   8.7329   8.6486   8.5464  24.6707  25.1024  24.7920  24.3312  22.7706  54.9905  45.3005  38.3530  32.2586  28.7681  54.8835  45.3003  38.1551  31.0020  26.3358  21.3136  17.6038  14.9913  12.0749  10.7872   9.4555   9.4643   8.7967   8.4567   8.3230  21.0957  17.5182  15.0000  11.9724  11.0397  10.3586   9.6899   8.5855   8.2553   8.1450  29.1308  21.1425  15.0144  12.2571  10.9628   9.2633   8.6172  27.0633  24.1626  21.0147  17.6008  14.8495  42.6606  35.2258  30.3618  27.3842  25.3824  32.2266  36.8748  38.2290  37.3385  38.9498  37.4812  36.7541  35.3280  34.7622  29.6140  27.6695  37.2678  36.1477  36.7448  38.1533  45.1544  42.7337  40.5087  36.6118  35.2234  34.7595  29.6895  27.6257  21.4230  21.3225  20.9688  19.4420  18.2930  29.3955  37.5574  27.9529 # Blackbody T = 760.000
  24.3686  21.8675  19.3127  18.4834  17.8886  15.6657  13.3686  12.0484  11.7537  11.3272  11.2457  10.9507  14.7237  14.5865  26.4110  25.3579  21.8200  19.2781  16.8647  18.4097  17.5823  17.4699  16.3351  16.1758  15.6549  15.2459  15.1515  13.9349  13.3619  12.8783  12.5848  12.4691  12.2941  12.0435  11.9490  11.4725  11.4810  11.2947  11.2442  11.0260  10.9807  10.9791  10.9259  10.4993   9.8752   9.4692   9.3101   9.1957   9.0581   8.9298   8.8481   8.7487  24.6707  25.1024  24.7920  24.3300  22.7653  53.8975  44.5208  37.7487  31.8298  28.3868  53.7882  44.5186  37.5732  30.6024  26.0490  21.1397  17.5298  14.9946  12.1669  10.9206   9.6322   9.6449   8.9968   8.6653   8.5342  20.9229  17.4451  15.0000  12.0656  11.1625  10.5036   9.8569   8.7868   8.4654   8.3574  28.7374  20.9694  15.0143  12.3425  11.0883   9.4445   8.8175  26.7172  23.8996  20.8410  17.5262  14.8545  41.9177  34.6748  29.9324  27.0301  25.0871  31.7916  36.5797  37.9251  37.0795  38.6848  37.2170  36.4607  34.7994  34.2274  29.2086  27.3297  36.9962  35.8691  36.4746  37.9043  44.8244  42.4103  40.1864  36.2618  34.6977  34.2266  29.2813  27.2877  21.3670  21.2018  20.8053  19.3233  18.1997  29.0761  36.9721  27.6307 # Blackbody T = 780.000
  24.3409  21.6904  19.1919  18.3895  17.8079  15.6502  13.4199  12.1390  11.8521  11.4390  11.3609  11.0747  14.8150  14.6809  26.3986  25.1650  21.6360  19.1554  16.8466  18.3163  17.5070  17.3959  16.2963  16.1390  15.6387  15.2382  15.1459  13.9654  13.4121  12.9410  12.6634  12.5441  12.3748  12.1329  12.0403  11.5779  11.5870  11.4064  11.3584  11.1462  11.1013  11.1008  11.0494  10.6367  10.0326   9.6393   9.4851   9.3743   9.2409   9.1162   9.0369   8.9404  24.6707  25.1024  24.7919  24.3283  22.7586  52.8576  43.7782  37.1722  31.4204  28.0239  52.7464  43.7743  37.0168  30.2206  25.7748  20.9741  17.4594  14.9976  12.2541  11.0470   9.7996   9.8160   9.1863   8.8629   8.7343  20.7586  17.3756  15.0000  12.1541  11.2790  10.6411  10.0151   8.9774   8.6644   8.5586  28.3631  20.8046  15.0142  12.4236  11.2073   9.6161   9.0073  26.3883  23.6497  20.6759  17.4552  14.8592  41.2112  34.1506  29.5241  26.6936  24.8063  31.3775  36.2985  37.6356  36.8334  38.4327  36.9642  36.1697  34.2958  33.7178  28.8229  27.0060  36.7374  35.6034  36.2171  37.6675  44.5057  42.0994  39.8533  35.9087  34.1966  33.7193  28.8930  26.9658  21.3089  21.0833  20.6496  19.2100  18.1109  28.7708  36.4153  27.3231 # Blackbody T = 800.000
  24.1720  21.2761  18.9132  18.1728  17.6218  15.6141  13.5372  12.3464  12.0776  11.6950  11.6243  11.3584  15.0191  14.8923  26.3547  24.6603  21.2118  18.8737  16.8017  18.1009  17.3344  17.2265  16.2073  16.0548  15.6010  15.2205  15.1333  14.0356  13.5266  13.0849  12.8421  12.7164  12.5599  12.3376  12.2497  11.8192  11.8297  11.6623  11.6196  11.4212  11.3773  11.3795  11.3321  10.9512  10.3924  10.0278   9.8846   9.7819   9.6579   9.5419   9.4679   9.3779  24.6707  25.1024  24.7917  24.3212  22.7344  50.4663  42.0673  35.8406  30.4727  27.1890  50.3510  42.0598  35.7262  29.3367  25.1391  20.5925  17.2975  15.0044  12.4535  11.3362  10.1818  10.2066   9.6188   9.3138   9.1910  20.3807  17.2158  15.0000  12.3567  11.5457  10.9555  10.3766   9.4124   9.1186   9.0177  27.5018  20.4257  15.0139  12.6090  11.4796  10.0078   9.4404  25.6331  23.0760  20.2968  17.2919  14.8699  39.5877  32.9454  28.5853  25.9205  24.1612  30.4242  35.6496  36.9681  36.2689  37.8522  36.3721  35.4351  33.1354  32.5437  27.9360  26.2607  36.1406  34.9898  35.6233  37.1238  43.7419  41.3622  38.9480  35.0131  33.0408  32.5516  28.0000  26.2243  21.1531  20.7976  20.2906  18.9484  17.9065  28.0629  35.1350  26.6117 # Blackbody T = 850.000
  23.8858  20.9009  18.6642  17.9786  17.4555  15.5813  13.6408  12.5300  12.2777  11.9219  11.8575  11.6096  15.1933  15.0733  26.2815  24.1531  20.8326  18.6231  16.7572  17.9082  17.1810  17.0763  16.1281  15.9803  15.5668  15.2049  15.1224  14.0981  13.6279  13.2127  12.9989  12.8694  12.7241  12.5189  12.4355  12.0332  12.0448  11.8890  11.8508  11.6648  11.6218  11.6263  11.5824  11.2293  10.7101  10.3708  10.2372  10.1417  10.0259   9.9173   9.8481   9.7637  24.6707  25.1024  24.7911  24.3076  22.6958  48.3338  40.5371  34.6457  29.6200  26.4439  48.2154  40.5269  34.5623  28.5410  24.5660  20.2515  17.1531  15.0102  12.6301  11.5920  10.5191  10.5512  10.0003   9.7115   9.5938  20.0438  17.0733  15.0000  12.5362  11.7817  11.2334  10.6958   9.7961   9.5191   9.4227  26.7332  20.0877  15.0135  12.7730  11.7205  10.3534   9.8223  24.9611  22.5657  19.9593  17.1460  14.8793  38.1411  31.8705  27.7485  25.2324  23.5866  29.5727  35.0683  36.3706  35.7671  37.3308  35.8159  34.6679  32.0983  31.4948  27.1448  25.5943  35.6061  34.4393  35.0916  36.6392  42.9814  40.6472  37.9355  34.1132  32.0072  31.5091  27.2036  25.5614  20.9834  20.5277  19.9695  18.7136  17.7242  27.4243  33.9933  25.9722 # Blackbody T = 900.000
  23.5298  20.5612  18.4407  17.8038  17.3062  15.5513  13.7330  12.6936  12.4561  12.1242  12.0652  11.8333  15.3427  15.2291  26.1627  23.6658  20.4915  18.3990  16.7134  17.7350  17.0438  16.9422  16.0572  15.9140  15.5355  15.1912  15.1130  14.1541  13.7180  13.3269  13.1376  13.0062  12.8707  12.6805  12.6012  12.2240  12.2366  12.0912  12.0566  11.8819  11.8397  11.8462  11.8054  11.4767  10.9925  10.6755  10.5504  10.4611  10.3526  10.2507  10.1857  10.1063  24.6707  25.1024  24.7899  24.2832  22.6374  46.4197  39.1597  33.5673  28.8480  25.7749  46.2991  39.1475  33.5073  27.8206  24.0465  19.9449  17.0234  15.0151  12.7872  11.8196  10.8187  10.8572  10.3390  10.0645   9.9514  19.7415  16.9456  15.0000  12.6962  11.9919  11.4808  10.9794  10.1368   9.8747   9.7822  26.0430  19.7842  15.0132  12.9191  11.9351  10.6601  10.1615  24.3594  22.1088  19.6570  17.0151  14.8876  36.8435  30.9057  26.9977  24.6160  23.0717  28.8070  34.5443  35.8325  35.3182  36.8526  35.2666  33.8635  31.1658  30.5524  26.4346  24.9948  35.1242  33.9424  34.6123  36.2042  42.1545  39.9001  36.8688  33.2320  31.0775  30.5727  26.4889  24.9649  20.8019  20.2737  19.6806  18.5017  17.5605  26.8447  32.9682  25.3938 # Blackbody T = 950.000
  23.1465  20.2529  18.2392  17.6456  17.1716  15.5238  13.8155  12.8401  12.6162  12.3055  12.2511  12.0337  15.4712  15.3634  25.9839  23.2082  20.1832  18.1972  16.6702  17.5783  16.9204  16.8219  15.9934  15.8547  15.5070  15.1789  15.1048  14.2047  13.7985  13.4295  13.2609  13.1290  13.0023  12.8253  12.7499  12.3952  12.4085  12.2724  12.2410  12.0764  12.0348  12.0432  12.0051  11.6981  11.2450  10.9477  10.8301  10.7464  10.6444  10.5484  10.4871  10.4122  24.6707  25.1024  24.7873  24.2420  22.5536  44.6919  37.9128  32.5890  28.1454  25.1708  44.5699  37.8991  32.5467  27.1651  23.5734  19.6677  16.9065  15.0193  12.9280  12.0233  11.0862  11.1305  10.6414  10.3798  10.2708  19.4688  16.8305  15.0000  12.8397  12.1802  11.7020  11.2329  10.4410  10.1923  10.1033  25.4199  19.5103  15.0128  13.0499  12.1273  10.9341  10.4643  23.8174  21.6975  19.3848  16.8970  14.8950  35.6729  30.0348  26.3204  24.0605  22.6077  28.1144  34.0694  35.3450  34.9142  36.3984  34.6959  33.0414  30.3227  29.7010  25.7935  24.4523  34.6874  33.4915  34.1779  35.8108  41.2096  39.0738  35.8126  32.3877  30.2370  29.7269  25.8438  24.4251  20.6122  20.0355  19.4194  18.3095  17.4127  26.3157  32.0426  24.8677 # Blackbody T = 1000.000
  21.7151  19.2641  17.6002  17.1395  16.7447  15.4338  14.0728  13.2983  13.1178  12.8727  12.8317  12.6599  15.8326  15.7437  24.7242  21.6898  19.1986  17.5592  16.5059  17.0780  16.5308  16.4434  15.7918  15.6689  15.4138  15.1407  15.0802  14.3645  14.0500  13.7521  13.6408  13.5152  13.4154  13.2784  13.2162  12.9311  12.9467  12.8393  12.8169  12.6842  12.6449  12.6589  12.6291  12.3884  12.0305  11.7942  11.6998  11.6332  11.5511  11.4734  11.4237  11.3627  24.6707  25.1013  24.7327  23.7487  21.9005  39.1856  33.9114  29.4402  25.8661  23.2451  39.0630  33.8954  29.4359  25.0412  22.0388  18.7828  16.5346  15.0313  13.3677  12.6587  11.9179  11.9798  11.5811  11.3596  11.2635  18.6016  16.4652  15.0000  13.2890  12.7684  12.3919  12.0215  11.3862  11.1793  11.1015  23.4341  18.6387  15.0112  13.4585  12.7272  11.7852  11.4053  22.0994  20.3946  18.5220  16.5212  14.9177  31.9448  27.2582  24.1649  22.2985  21.1353  25.8955  32.5421  33.7788  33.6349  34.3403  32.0732  29.9986  27.6253  26.9852  23.7510  22.7144  33.2803  32.0368  32.7793  34.5425  36.9733  35.3077  32.1844  29.4980  27.5478  27.0269  23.7891  22.6953  19.8409  19.2239  18.5839  17.6917  16.9427  24.5885  29.0881  23.1626 # Blackbody T = 1200.000
  20.6078  18.5493  17.1451  16.7747  16.4406  15.3671  14.2517  13.6177  13.4684  13.2684  13.2357  13.0958  16.0345  15.9587  23.2794  20.5714  18.4887  17.1055  16.3567  16.7178  16.2546  16.1765  15.6489  15.5388  15.3449  15.1143  15.0641  14.4778  14.2250  13.9789  13.9004  13.7864  13.7049  13.5946  13.5423  13.3054  13.3224  13.2348  13.2178  13.1076  13.0699  13.0877  13.0635  12.8679  12.5749  12.3803  12.3019  12.2470  12.1787  12.1136  12.0720  12.0206  24.6707  25.0898  24.4322  22.6634  20.9727  35.2163  30.9951  27.1426  24.1813  21.8583  35.0982  30.9796  27.1516  23.4754  20.9080  18.1451  16.2688  15.0387  13.6740  13.1002  12.4934  12.5673  12.2315  12.0381  11.9511  17.9802  16.2046  15.0000  13.6028  13.1778  12.8709  12.5678  12.0404  11.8629  11.7930  22.0050  18.0131  15.0099  13.7430  13.1446  12.3738  12.0566  20.8722  19.4652  17.9066  16.2524  14.9334  29.2583  25.2561  22.6162  21.0385  20.0826  24.2801  31.4258  32.6335  32.7039  31.7350  29.5563  27.6280  25.6670  25.0259  22.2808  21.4523  32.2478  30.9696  31.7544  33.5541  33.4844  32.0932  29.4938  27.3068  25.5962  25.0761  22.3109  21.4385  19.1500  18.5953  17.9807  17.2425  16.6062  23.2959  26.9499  21.9026 # Blackbody T = 1400.000
  19.7617  18.0106  16.8064  16.5005  16.2144  15.3160  14.3821  13.8509  13.7249  13.5574  13.5303  13.4137  16.1427  16.0760  22.0743  19.7235  17.9541  16.7681  16.2230  16.4474  16.0498  15.9794  15.5430  15.4434  15.2924  15.0952  15.0530  14.5616  14.3527  14.1455  14.0873  13.9854  13.9170  13.8257  13.7810  13.5790  13.5969  13.5237  13.5101  13.4167  13.3801  13.4007  13.3805  13.2171  12.9709  12.8066  12.7398  12.6935  12.6352  12.5794  12.5436  12.4994  24.6705  25.0209  23.5987  21.5876  20.1555  32.2174  28.7704  25.3937  22.8841  20.8136  32.1066  28.7564  25.4072  22.2726  20.0418  17.6653  16.0703  15.0436  13.8976  13.4219  12.9118  12.9945  12.7046  12.5320  12.4519  17.5148  16.0105  15.0000  13.8322  13.4765  13.2197  12.9651  12.5165  12.3607  12.2967  20.9292  17.5439  15.0087  13.9507  13.4490  12.8017  12.5305  19.9537  18.7709  17.4473  16.0516  14.9446  27.2278  23.7441  21.4511  20.0947  19.2948  23.0465  30.5711  31.7480  31.8277  29.4189  27.5337  25.8090  24.1766  23.5460  21.1733  20.4942  31.4511  30.1513  30.9669  32.4322  30.8166  29.6244  27.4500  25.6135  24.1113  23.6001  21.1977  20.4840  18.5768  18.0998  17.5263  16.9026  16.3547  22.2862  25.3258  20.9312 # Blackbody T = 1600.000
  19.0997  17.5916  16.5458  16.2881  16.0404  15.2760  14.4806  14.0273  13.9192  13.7761  13.7531  13.6542  16.1931  16.1325  21.1100  19.0616  17.5386  16.5085  16.1042  16.2380  15.8928  15.8287  15.4619  15.3708  15.2512  15.0807  15.0449  14.6257  14.4493  14.2721  14.2272  14.1366  14.0780  14.0007  13.9620  13.7862  13.8048  13.7425  13.7313  13.6505  13.6148  13.6374  13.6203  13.4810  13.2700  13.1286  13.0707  13.0308  12.9802  12.9314  12.9002  12.8614  24.6693  24.7550  22.5434  20.7199  19.5015  29.8716  27.0158  24.0197  21.8553  19.9999  29.7693  27.0036  24.0344  21.3202  19.3586  17.2928  15.9173  15.0469  14.0667  13.6650  13.2278  13.3170  13.0623  12.9058  12.8309  17.1546  15.8611  15.0000  14.0060  13.7025  13.4834  13.2652  12.8764  12.7374  12.6780  20.0917  17.1805  15.0077  14.1078  13.6792  13.1247  12.8887  19.2423  18.2342  17.0929  15.8969  14.9531  25.6384  22.5626  20.5445  19.3632  18.6849  22.0710  29.8923  31.0031  30.5329  27.5532  25.9272  24.3801  23.0021  22.3895  20.3106  19.7429  30.8058  29.5025  30.3332  30.7525  28.7255  27.6932  25.8464  24.2694  22.9418  22.4448  20.3309  19.7352  18.1090  17.7018  17.1731  16.6377  16.1607  21.4724  24.0476  20.1593 # Blackbody T = 1800.000
  18.5698  17.2577  16.3400  16.1195  15.9032  15.2440  14.5571  14.1646  14.0706  13.9465  13.9265  13.8415  16.2064  16.1501  20.3314  18.5322  17.2075  16.3037  15.9989  16.0718  15.7693  15.7105  15.3982  15.3141  15.2184  15.0695  15.0388  14.6760  14.5245  14.3710  14.3352  14.2547  14.2035  14.1370  14.1031  13.9478  13.9667  13.9129  13.9034  13.8326  13.7975  13.8218  13.8070  13.6864  13.5029  13.3793  13.3283  13.2934  13.2488  13.2057  13.1780  13.1435  24.6623  24.1011  21.6231  20.0225  18.9762  27.9869  25.5966  22.9134  21.0206  19.3496  27.8935  25.5860  22.9278  20.5482  18.8075  16.9963  15.7965  15.0494  14.1984  13.8542  13.4737  13.5681  13.3410  13.1972  13.1265  16.8687  15.7433  15.0000  14.1414  13.8784  13.6885  13.4987  13.1569  13.0312  12.9754  19.4228  16.8919  15.0069  14.2300  13.8584  13.3761  13.1679  18.6766  17.8084  16.8124  15.7747  14.9597  24.3605  21.6151  19.8205  18.7812  18.2002  21.2785  29.3345  30.2499  28.8671  26.0442  24.6286  23.2307  22.0521  21.4622  19.6210  19.1391  30.2531  28.9727  29.7722  28.9072  27.0438  26.1452  24.5547  23.1777  21.9962  21.5170  19.6382  19.1331  17.7258  17.3768  16.8918  16.4263  16.0072  20.8004  23.0137  19.5316 # Blackbody T = 2000.000
  18.1374  16.9862  16.1742  15.9830  15.7926  15.2179  14.6179  14.2740  14.1913  14.0824  14.0647  13.9908  16.1956  16.1424  19.6928  18.1004  16.9384  16.1386  15.9058  15.9373  15.6700  15.6156  15.3470  15.2688  15.1917  15.0606  15.0340  14.7163  14.5843  14.4500  14.4207  14.3490  14.3038  14.2457  14.2158  14.0766  14.0959  14.0488  14.0407  13.9779  13.9433  13.9689  13.9559  13.8502  13.6885  13.5793  13.5339  13.5031  13.4633  13.4247  13.3999  13.3689  24.6345  23.2024  20.8606  19.4528  18.5475  26.4400  24.4255  22.0049  20.3310  18.8193  26.3558  24.4163  22.0186  19.9107  18.3548  16.7557  15.6990  15.0511  14.3033  14.0051  13.6697  13.7683  13.5636  13.4301  13.3629  16.6373  15.6484  15.0000  14.2494  14.0186  13.8521  13.6850  13.3809  13.2660  13.2132  18.8775  16.6579  15.0062  14.3275  14.0012  13.5766  13.3909  18.2173  17.4635  16.5857  15.6761  14.9649  23.3110  20.8395  19.2302  18.3083  17.8071  20.6210  28.8563  29.3167  27.2674  24.8032  23.5591  22.2875  21.2678  20.7030  19.0584  18.6442  29.7475  28.5233  29.1517  27.2599  25.6626  24.8782  23.4922  22.2744  21.2158  20.7565  19.0732  18.6396  17.4089  17.1074  16.6634  16.2544  15.8832  20.2348  22.1592  19.0119 # Blackbody T = 2200.000
  17.7788  16.7620  16.0382  15.8706  15.7018  15.1963  14.6672  14.3629  14.2895  14.1929  14.1771  14.1122  16.1690  16.1183  19.1610  17.7424  16.7161  16.0032  15.8235  15.8267  15.5888  15.5382  15.3052  15.2319  15.1697  15.0534  15.0303  14.7491  14.6330  14.5143  14.4898  14.4258  14.3854  14.3341  14.3074  14.1815  14.2011  14.1594  14.1523  14.0960  14.0619  14.0885  14.0770  13.9834  13.8396  13.7422  13.7013  13.6738  13.6381  13.6032  13.5807  13.5526  24.5479  22.3493  20.2246  18.9799  18.1924  25.1484  23.4434  21.2467  19.7527  18.3796  25.0729  23.4354  21.2595  19.3761  17.9772  16.5572  15.6191  15.0525  14.3886  14.1277  13.8293  13.9313  13.7451  13.6201  13.5557  16.4467  15.5706  15.0000  14.3373  14.1327  13.9851  13.8365  13.5635  13.4576  13.4073  18.4256  16.4652  15.0056  14.4066  14.1174  13.7398  13.5726  17.8379  17.1793  16.3993  15.5953  14.9691  22.4342  20.1938  18.7408  17.9176  17.4827  20.0660  28.4159  28.1845  25.8746  23.7661  22.6638  21.5007  20.6095  20.0711  18.5917  18.2322  29.2511  28.1119  28.3152  25.8546  24.5084  23.8231  22.6033  21.5152  20.5610  20.1227  18.6045  18.2286  17.1438  16.8813  16.4749  16.1124  15.7815  19.7515  21.4405  18.5753 # Blackbody T = 2400.000
  17.4774  16.5742  15.9251  15.7769  15.6263  15.1783  14.7078  14.4364  14.3707  14.2844  14.2701  14.2126  16.1323  16.0838  18.7124  17.4415  16.5299  15.8906  15.7506  15.7344  15.5214  15.4739  15.2705  15.2013  15.1512  15.0475  15.0272  14.7764  14.6731  14.5676  14.5466  14.4894  14.4529  14.4072  14.3832  14.2683  14.2880  14.2509  14.2446  14.1938  14.1601  14.1875  14.1773  14.0937  13.9646  13.8771  13.8400  13.8154  13.7829  13.7511  13.7307  13.7050  24.3294  21.6087  19.6874  18.5819  17.8942  24.0542  22.6086  20.6053  19.2617  18.0099  23.9872  22.6016  20.6171  18.9222  17.6582  16.3911  15.5526  15.0536  14.4591  14.2292  13.9615  14.0663  13.8955  13.7777  13.7158  16.2876  15.5059  15.0000  14.4099  14.2270  14.0952  13.9619  13.7150  13.6166  13.5684  18.0457  16.3041  15.0051  14.4720  14.2135  13.8750  13.7234  17.5200  16.9417  16.2440  15.5280  14.9726  21.6912  19.6487  18.3292  17.5901  17.2112  19.5909  27.9595  26.9999  24.6806  22.8872  21.9040  20.8352  20.0495  19.5377  18.1991  17.8845  28.7276  27.6763  27.2685  24.6571  23.5299  22.9317  21.8491  20.8690  20.0042  19.5871  18.2104  17.8816  16.9199  16.6895  16.3171  15.9936  15.6967  19.3331  20.8273  18.2039 # Blackbody T = 2600.000
  17.2211  16.4151  15.8297  15.6977  15.5625  15.1630  14.7417  14.4980  14.4388  14.3612  14.3481  14.2969  16.0894  16.0427  18.3295  17.1857  16.3722  15.7957  15.6858  15.6564  15.4646  15.4200  15.2413  15.1758  15.1356  15.0425  15.0247  14.7993  14.7068  14.6123  14.5942  14.5428  14.5096  14.4685  14.4469  14.3411  14.3610  14.3277  14.3221  14.2758  14.2425  14.2706  14.2614  14.1863  14.0697  13.9905  13.9566  13.9344  13.9048  13.8756  13.8569  13.8333  23.8948  20.9702  19.2286  18.2431  17.6409  23.1161  21.8909  20.0563  18.8404  17.6954  23.0570  21.8849  20.0672  18.5326  17.3858  16.2505  15.4965  15.0545  14.5183  14.3143  14.0726  14.1798  14.0221  13.9105  13.8506  16.1530  15.4514  15.0000  14.4709  14.3062  14.1876  14.0673  13.8425  13.7505  13.7041  17.7225  16.1679  15.0047  14.5269  14.2942  13.9886  13.8502  17.2505  16.7407  16.1128  15.4712  14.9755  21.0541  19.1831  17.9790  17.3122  16.9813  19.1795  27.4243  25.8794  23.6529  22.1335  21.2516  20.2656  19.5677  19.0821  17.8650  17.5877  28.1393  27.1391  26.1672  23.6285  22.6904  22.1694  21.2016  20.3128  19.5253  19.1292  17.8750  17.5855  16.7288  16.5250  16.1835  15.8929  15.6253  18.9671  20.2978  17.8848 # Blackbody T = 2800.000
  17.0009  16.2787  15.7485  15.6300  15.5082  15.1499  14.7705  14.5503  14.4966  14.4264  14.4144  14.3685  16.0428  15.9978  17.9995  16.9660  16.2370  15.7148  15.6280  15.5898  15.4164  15.3741  15.2165  15.1540  15.1222  15.0383  15.0226  14.8188  14.7354  14.6503  14.6344  14.5881  14.5577  14.5206  14.5010  14.4030  14.4231  14.3930  14.3879  14.3456  14.3125  14.3413  14.3329  14.2650  14.1591  14.0870  14.0559  14.0357  14.0085  13.9817  13.9644  13.9426  23.2707  20.4162  18.8328  17.9516  17.4236  22.3033  21.2679  19.5819  18.4754  17.4251  22.2517  21.2626  19.5919  18.1950  17.1509  16.1302  15.4487  15.0552  14.5685  14.3867  14.1671  14.2764  14.1300  14.0237  13.9656  16.0380  15.4050  15.0000  14.5227  14.3735  14.2662  14.1570  13.9511  13.8647  13.8198  17.4448  16.0514  15.0043  14.5735  14.3627  14.0853  13.9583  17.0195  16.5688  16.0008  15.4229  14.9779  20.5022  18.7814  17.6779  17.0740  16.7844  18.8197  26.7727  24.8624  22.7614  21.4806  20.6857  19.7733  19.1491  18.6891  17.5777  17.3319  27.4606  26.4599  25.1239  22.7371  21.9626  21.5107  20.6400  19.8296  19.1093  18.7339  17.5866  17.3302  16.5643  16.3829  16.0692  15.8066  15.5643  18.6441  19.8359  17.6080 # Blackbody T = 3000.000
  16.8100  16.1609  15.6785  15.5717  15.4613  15.1386  14.7950  14.5952  14.5463  14.4824  14.4713  14.4301  15.9944  15.9511  17.7126  16.7756  16.1203  15.6452  15.5764  15.5324  15.3749  15.3346  15.1952  15.1354  15.1107  15.0347  15.0208  14.8355  14.7599  14.6829  14.6688  14.6271  14.5991  14.5654  14.5474  14.4562  14.4764  14.4491  14.4445  14.4056  14.3727  14.4020  14.3944  14.3326  14.2360  14.1701  14.1414  14.1230  14.0979  14.0731  14.0570  14.0368  22.6016  19.9317  18.4883  17.6987  17.2354  21.5927  20.7224  19.1682  18.1567  17.1907  21.5483  20.7178  19.1775  17.9000  16.9466  16.0263  15.4076  15.0558  14.6117  14.4489  14.2484  14.3595  14.2230  14.1213  14.0647  15.9389  15.3651  15.0000  14.5672  14.4314  14.3338  14.2341  14.0447  13.9632  13.9196  17.2041  15.9509  15.0040  14.6135  14.4216  14.1685  14.0514  16.8197  16.4204  15.9043  15.3813  14.9800  20.0199  18.4317  17.4168  16.8679  16.6143  18.5023  26.0249  23.9511  21.9818  20.9100  20.1906  19.3439  18.7825  18.3471  17.3284  17.1096  26.6996  25.6767  24.1757  21.9580  21.3261  20.9363  20.1488  19.4065  18.7451  18.3896  17.3365  17.1083  16.4215  16.2590  15.9705  15.7322  15.5117  18.3567  19.4293  17.3661 # Blackbody T = 3200.000
  16.6433  16.0583  15.6178  15.5210  15.4205  15.1287  14.8163  14.6341  14.5893  14.5310  14.5208  14.4834  15.9456  15.9038  17.4613  16.6093  16.0185  15.5848  15.5301  15.4825  15.3389  15.3005  15.1767  15.1193  15.1006  15.0316  15.0193  14.8501  14.7811  14.7113  14.6985  14.6609  14.6350  14.6042  14.5877  14.5024  14.5226  14.4978  14.4936  14.4576  14.4250  14.4547  14.4478  14.3914  14.3028  14.2423  14.2157  14.1988  14.1757  14.1525  14.1376  14.1188  21.9749  19.5048  18.1862  17.4775  17.0711  20.9667  20.2413  18.8048  17.8764  16.9858  20.9289  20.2373  18.8134  17.6405  16.7677  15.9358  15.3718  15.0563  14.6491  14.5030  14.3191  14.4317  14.3039  14.2062  14.1510  15.8526  15.3304  15.0000  14.6058  14.4816  14.3925  14.3011  14.1262  14.0489  14.0065  16.9937  15.8634  15.0037  14.6481  14.4727  14.2408  14.1324  16.6455  16.2913  15.8205  15.3451  14.9818  19.5951  18.1250  17.1885  16.6882  16.4661  18.2203  25.2381  23.1358  21.2948  20.4073  19.7542  18.9666  18.4590  18.0470  17.1105  16.9149  25.8956  24.8636  23.3247  21.2717  20.7650  20.4315  19.7158  19.0331  18.4239  18.0874  17.1177  16.9139  16.2966  16.1503  15.8845  15.6673  15.4661  18.0993  19.0687  17.1532 # Blackbody T = 3400.000
  16.4966  15.9681  15.5647  15.4765  15.3847  15.1201  14.8347  14.6681  14.6269  14.5736  14.5640  14.5301  15.8970  15.8568  17.2395  16.4630  15.9292  15.5319  15.4884  15.4387  15.3074  15.2706  15.1605  15.1052  15.0918  15.0289  15.0180  14.8628  14.7996  14.7360  14.7245  14.6905  14.6664  14.6381  14.6230  14.5428  14.5631  14.5404  14.5366  14.5032  14.4707  14.5009  14.4945  14.4429  14.3614  14.3056  14.2809  14.2654  14.2438  14.2223  14.2083  14.1907  21.4091  19.1262  17.9193  17.2826  16.9267  20.4113  19.8142  18.4834  17.6282  16.8055  20.3796  19.8107  18.4913  17.4106  16.6098  15.8564  15.3406  15.0567  14.6818  14.5502  14.3811  14.4951  14.3748  14.2808  14.2268  15.7770  15.3000  15.0000  14.6396  14.5255  14.4439  14.3598  14.1976  14.1241  14.0829  16.8085  15.7867  15.0035  14.6784  14.5175  14.3042  14.2035  16.4925  16.1780  15.7470  15.3135  14.9834  19.2185  17.8540  16.9874  16.5302  16.3361  17.9681  24.4621  22.4048  20.6853  19.9616  19.3669  18.6327  18.1717  17.7821  16.9186  16.7431  25.0922  24.0746  22.5623  20.6631  20.2671  19.9846  19.3316  18.7017  18.1386  17.8203  16.9252  16.7424  16.1866  16.0543  15.8091  15.6103  15.4261  17.8675  18.7468  16.9646 # Blackbody T = 3600.000
  16.3667  15.8885  15.5178  15.4373  15.3532  15.1124  14.8510  14.6981  14.6600  14.6111  14.6021  14.5713  15.8495  15.8108  17.0426  16.3335  15.8503  15.4853  15.4508  15.4001  15.2796  15.2443  15.1462  15.0928  15.0840  15.0265  15.0168  14.8740  14.8160  14.7578  14.7473  14.7166  14.6941  14.6680  14.6541  14.5784  14.5988  14.5780  14.5745  14.5434  14.5111  14.5416  14.5358  14.4883  14.4131  14.3615  14.3385  14.3242  14.3041  14.2839  14.2708  14.2543  20.9012  18.7883  17.6822  17.1100  16.7989  19.9155  19.4327  18.1974  17.4072  16.6457  19.8896  19.4296  18.2047  17.2058  16.4698  15.7864  15.3130  15.0570  14.7106  14.5919  14.4358  14.5510  14.4375  14.3467  14.2938  15.7102  15.2733  15.0000  14.6693  14.5642  14.4892  14.4116  14.2608  14.1907  14.1504  16.6445  15.7190  15.0033  14.7051  14.5570  14.3602  14.2664  16.3573  16.0780  15.6822  15.2856  14.9848  18.8826  17.6133  16.8093  16.3906  16.2212  17.7412  23.7248  21.7467  20.1413  19.5638  19.0212  18.3355  17.9151  17.5466  16.7485  16.5907  24.3200  23.3349  21.8777  20.1199  19.8224  19.5867  18.9886  18.4057  17.8839  17.5828  16.7545  16.5902  16.0892  15.9690  15.7424  15.5600  15.3909  17.6576  18.4577  16.7965 # Blackbody T = 3800.000
  16.2511  15.8177  15.4763  15.4024  15.3251  15.1056  14.8653  14.7247  14.6894  14.6444  14.6360  14.6078  15.8032  15.7661  16.8669  16.2181  15.7801  15.4439  15.4167  15.3658  15.2550  15.2210  15.1336  15.0818  15.0771  15.0244  15.0158  14.8840  14.8304  14.7772  14.7676  14.7397  14.7186  14.6946  14.6817  14.6100  14.6305  14.6114  14.6081  14.5791  14.5469  14.5777  14.5724  14.5286  14.4590  14.4112  14.3897  14.3765  14.3577  14.3387  14.3265  14.3109  20.4446  18.4852  17.4704  16.9560  16.6852  19.4704  19.0903  17.9414  17.2094  16.5034  19.4500  19.0875  17.9483  17.0224  16.3448  15.7241  15.2885  15.0573  14.7362  14.6289  14.4844  14.6007  14.4934  14.4055  14.3535  15.6509  15.2495  15.0000  14.6957  14.5987  14.5295  14.4577  14.3170  14.2500  14.2105  16.4984  15.6588  15.0031  14.7288  14.5920  14.4100  14.3223  16.2370  15.9892  15.6247  15.2608  14.9860  18.5813  17.3981  16.6506  16.2664  16.1191  17.5362  23.0372  21.1520  19.6530  19.2070  18.7109  18.0695  17.6848  17.3363  16.5969  16.4547  23.5940  22.6517  21.2606  19.6325  19.4232  19.2302  18.6807  18.1400  17.6553  17.3706  16.6024  16.4544  16.0024  15.8928  15.6832  15.5153  15.3596  17.4667  18.1967  16.6460 # Blackbody T = 4000.000
  16.1475  15.7544  15.4392  15.3713  15.3000  15.0995  14.8781  14.7484  14.7156  14.6742  14.6662  14.6405  15.7586  15.7230  16.7093  16.1149  15.7174  15.4071  15.3856  15.3352  15.2331  15.2003  15.1223  15.0720  15.0709  15.0225  15.0149  14.8928  14.8433  14.7945  14.7856  14.7604  14.7406  14.7183  14.7064  14.6383  14.6588  14.6412  14.6381  14.6110  14.5789  14.6101  14.6051  14.5647  14.5001  14.4557  14.4355  14.4233  14.4057  14.3879  14.3763  14.3616  20.0324  18.2119  17.2801  16.8181  16.5834  19.0690  18.7813  17.7113  17.0315  16.3760  19.0536  18.7789  17.7177  16.8574  16.2327  15.6684  15.2667  15.0576  14.7590  14.6620  14.5279  14.6452  14.5434  14.4581  14.4070  15.5980  15.2284  15.0000  14.7193  14.6294  14.5655  14.4989  14.3674  14.3031  14.2644  16.3675  15.6051  15.0029  14.7500  14.6233  14.4546  14.3724  16.1294  15.9099  15.5734  15.2387  14.9871  18.3098  17.2049  16.5084  16.1553  16.0279  17.3501  22.4012  20.6124  19.2125  18.8853  18.4310  17.8303  17.4770  17.1474  16.4611  16.3328  22.9193  22.0243  20.7021  19.1929  19.0631  18.9094  18.4031  17.9004  17.4491  17.1799  16.4662  16.3326  15.9247  15.8244  15.6303  15.4753  15.3316  17.2924  17.9599  16.5106 # Blackbody T = 4200.000
  16.0544  15.6975  15.4060  15.3434  15.2774  15.0940  14.8895  14.7697  14.7391  14.7009  14.6934  14.6698  15.7157  15.6816  16.5672  16.0220  15.6610  15.3740  15.3573  15.3077  15.2134  15.1816  15.1122  15.0632  15.0653  15.0208  15.0141  14.9008  14.8549  14.8101  14.8018  14.7790  14.7603  14.7396  14.7285  14.6637  14.6843  14.6680  14.6652  14.6397  14.6077  14.6391  14.6345  14.5971  14.5371  14.4958  14.4768  14.4654  14.4489  14.4321  14.4212  14.4073  19.6588  17.9645  17.1085  16.6939  16.4920  18.7052  18.5013  17.5035  16.8708  16.2613  18.6945  18.4993  17.5095  16.7082  16.1317  15.6184  15.2470  15.0579  14.7795  14.6918  14.5671  14.6853  14.5884  14.5055  14.4552  15.5505  15.2094  15.0000  14.7405  14.6570  14.5978  14.5360  14.4128  14.3509  14.3129  16.2498  15.5569  15.0027  14.7689  14.6515  14.4947  14.4175  16.0328  15.8386  15.5273  15.2189  14.9881  18.0639  17.0305  16.3803  16.0554  15.9459  17.1804  21.8146  20.1208  18.8134  18.5939  18.1775  17.6141  17.2887  16.9769  16.3389  16.2229  22.2955  21.4486  20.1947  18.7947  18.7366  18.6194  18.1517  17.6834  17.2624  17.0077  16.3435  16.2228  15.8547  15.7627  15.5827  15.4393  15.3065  17.1325  17.7442  16.3883 # Blackbody T = 4400.000
  15.9702  15.6462  15.3760  15.3181  15.2570  15.0890  14.8997  14.7889  14.7602  14.7250  14.7180  14.6963  15.6746  15.6420  16.4385  15.9381  15.6101  15.3441  15.3314  15.2829  15.1957  15.1648  15.1031  15.0553  15.0602  15.0192  15.0134  14.9080  14.8654  14.8241  14.8163  14.7957  14.7781  14.7588  14.7485  14.6866  14.7073  14.6922  14.6895  14.6656  14.6337  14.6653  14.6611  14.6264  14.5705  14.5320  14.5141  14.5036  14.4880  14.4721  14.4618  14.4486  19.3189  17.7395  16.9530  16.5817  16.4093  18.3742  18.2467  17.3150  16.7250  16.1576  18.3679  18.2449  17.3206  16.5729  16.0403  15.5733  15.2293  15.0581  14.7980  14.7187  14.6025  14.7215  14.6291  14.5484  14.4989  15.5076  15.1922  15.0000  14.7596  14.6820  14.6271  14.5695  14.4538  14.3943  14.3569  16.1434  15.5133  15.0026  14.7861  14.6769  14.5309  14.4584  15.9455  15.7744  15.4858  15.2010  14.9890  17.8405  16.8725  16.2646  15.9653  15.8720  17.0251  21.2738  19.6713  18.4502  18.3290  17.9469  17.4180  17.1175  16.8225  16.2283  16.1234  21.7199  20.9200  19.7320  18.4324  18.4396  18.3559  17.9230  17.4861  17.0926  16.8517  16.2327  16.1234  15.7915  15.7068  15.5398  15.4069  15.2839  16.9856  17.5468  16.2772 # Blackbody T = 4600.000
  15.8938  15.5997  15.3489  15.2953  15.2385  15.0845  14.9090  14.8063  14.7795  14.7469  14.7402  14.7203  15.6354  15.6042  16.3216  15.8619  15.5640  15.3171  15.3076  15.2604  15.1796  15.1496  15.0948  15.0481  15.0556  15.0179  15.0127  14.9146  14.8749  14.8368  14.8295  14.8109  14.7942  14.7762  14.7667  14.7074  14.7281  14.7142  14.7117  14.6891  14.6573  14.6892  14.6852  14.6530  14.6009  14.5649  14.5480  14.5382  14.5236  14.5085  14.4987  14.4862  19.0084  17.5342  16.8116  16.4797  16.3344  18.0719  18.0142  17.1434  16.5922  16.0634  18.0698  18.0127  17.1486  16.4496  15.9572  15.5324  15.2133  15.0582  14.8148  14.7430  14.6347  14.7544  14.6662  14.5874  14.5386  15.4687  15.1767  15.0000  14.7769  14.7046  14.6536  14.5999  14.4911  14.4337  14.3969  16.0468  15.4739  15.0024  14.8016  14.7000  14.5639  14.4955  15.8664  15.7161  15.4481  15.1848  14.9898  17.6366  16.7288  16.1595  15.8835  15.8050  16.8825  20.7747  19.2590  18.1184  18.0872  17.7364  17.2394  16.9613  16.6821  16.1280  16.0330  21.1886  20.4337  19.3085  18.1016  18.1683  18.1159  17.7143  17.3061  16.9377  16.7098  16.1320  16.0331  15.7341  15.6560  15.5009  15.3774  15.2634  16.8500  17.3658  16.1761 # Blackbody T = 4800.000
  15.8242  15.5573  15.3242  15.2745  15.2217  15.0804  14.9175  14.8222  14.7969  14.7668  14.7605  14.7422  15.5979  15.5682  16.2150  15.7925  15.5220  15.2926  15.2857  15.2399  15.1650  15.1358  15.0873  15.0416  15.0515  15.0166  15.0121  14.9205  14.8835  14.8483  14.8415  14.8247  14.8089  14.7921  14.7832  14.7264  14.7471  14.7342  14.7318  14.7105  14.6788  14.7109  14.7072  14.6772  14.6286  14.5949  14.5790  14.5698  14.5560  14.5417  14.5324  14.5205  18.7238  17.3463  16.6826  16.3868  16.2661  17.7948  17.8012  16.9866  16.4709  15.9777  17.7966  17.7999  16.9915  16.3369  15.8815  15.4952  15.1987  15.0584  14.8301  14.7653  14.6640  14.7844  14.7000  14.6230  14.5748  15.4334  15.1626  15.0000  14.7927  14.7253  14.6778  14.6277  14.5252  14.4696  14.4334  15.9588  15.4380  15.0023  14.8157  14.7210  14.5939  14.5294  15.7944  15.6632  15.4139  15.1700  14.9905  17.4500  16.5977  16.0638  15.8091  15.7440  16.7512  20.3132  18.8795  17.8144  17.8658  17.5436  17.0761  16.8182  16.5539  16.0366  15.9506  20.6977  19.9852  18.9195  17.7984  17.9197  17.8963  17.5231  17.1412  16.7958  16.5802  16.0403  15.9508  15.6818  15.6097  15.4655  15.3506  15.2447  16.7245  17.1990  16.0836 # Blackbody T = 5000.000
  15.6749  15.4664  15.2713  15.2299  15.1854  15.0716  14.9354  14.8562  14.8344  14.8097  14.8041  14.7891  15.5119  15.4855  15.9856  15.6436  15.4320  15.2399  15.2379  15.1960  15.1337  15.1062  15.0712  15.0277  15.0425  15.0139  15.0109  14.9332  14.9019  14.8732  14.8672  14.8545  14.8404  14.8262  14.8187  14.7672  14.7879  14.7772  14.7752  14.7566  14.7251  14.7575  14.7544  14.7294  14.6881  14.6596  14.6456  14.6379  14.6259  14.6133  14.6051  14.5945  18.1074  16.9396  16.4047  16.1873  16.1198  17.1946  17.3402  16.6487  16.2094  15.7937  17.2052  17.3394  16.6529  16.0938  15.7186  15.4153  15.1675  15.0588  14.8629  14.8131  14.7272  14.8491  14.7729  14.6999  14.6531  15.3576  15.1323  15.0000  14.8267  14.7696  14.7299  14.6875  14.5987  14.5473  14.5122  15.7699  15.3610  15.0021  14.8461  14.7662  14.6586  14.6024  15.6401  15.5497  15.3406  15.1384  14.9921  17.0465  16.3153  15.8583  15.6496  15.6133  16.4646  19.3011  18.0521  17.1556  17.3867  17.1264  16.7240  16.5086  16.2780  15.8403  15.7734  19.6227  19.0049  18.0741  17.1417  17.3810  17.4220  17.1094  16.7846  16.4888  16.3011  15.8434  15.7738  15.5695  15.5098  15.3896  15.2932  15.2047  16.4487  16.8350  15.8843 # Blackbody T = 5500.000
  15.5532  15.3925  15.2283  15.1936  15.1558  15.0644  14.9500  14.8840  14.8649  14.8447  14.8397  14.8275  15.4360  15.4127  15.7984  15.5224  15.3586  15.1972  15.1982  15.1603  15.1083  15.0822  15.0581  15.0164  15.0352  15.0118  15.0099  14.9436  14.9170  14.8935  14.8882  14.8787  14.8662  14.8541  14.8477  14.8004  14.8213  14.8124  14.8106  14.7942  14.7629  14.7957  14.7930  14.7721  14.7369  14.7126  14.7003  14.6938  14.6832  14.6720  14.6647  14.6552  17.5993  16.6052  16.1777  16.0247  16.0007  16.6998  16.9607  16.3720  15.9954  15.6438  16.7180  16.9603  16.3756  15.8945  15.5857  15.3504  15.1420  15.0590  14.8897  14.8521  14.7790  14.9021  14.8328  14.7630  14.7173  15.2960  15.1076  15.0000  14.8544  14.8059  14.7725  14.7364  14.6590  14.6110  14.5769  15.6161  15.2984  15.0018  14.8709  14.8031  14.7117  14.6624  15.5146  15.4575  15.2810  15.1127  14.9933  16.7147  16.0845  15.6908  15.5199  15.5071  16.2260  18.4546  17.3641  16.6124  16.9924  16.7830  16.4355  16.2539  16.0526  15.6803  15.6287  18.7261  18.1877  17.3741  16.6003  16.9370  17.0328  16.7690  16.4914  16.2365  16.0729  15.6829  15.6293  15.4779  15.4281  15.3278  15.2463  15.1721  16.2169  16.5318  15.7209 # Blackbody T = 6000.000
  15.4524  15.3312  15.1928  15.1635  15.1313  15.0585  14.9620  14.9071  14.8901  14.8738  14.8694  14.8594  15.3688  15.3485  15.6431  15.4219  15.2979  15.1618  15.1648  15.1307  15.0872  15.0623  15.0472  15.0070  15.0291  15.0100  15.0090  14.9523  14.9295  14.9103  14.9055  14.8989  14.8876  14.8772  14.8718  14.8282  14.8491  14.8416  14.8401  14.8255  14.7944  14.8274  14.8252  14.8076  14.7776  14.7568  14.7459  14.7404  14.7311  14.7210  14.7144  14.7059  17.1742  16.3260  15.9892  15.8900  15.9020  16.2859  16.6437  16.1420  15.8173  15.5196  16.3107  16.6436  16.1451  15.7287  15.4754  15.2966  15.1209  15.0593  14.9120  14.8847  14.8222  14.9463  14.8827  14.8158  14.7710  15.2450  15.0872  15.0000  14.8774  14.8360  14.8080  14.7772  14.7093  14.6643  14.6310  15.4887  15.2466  15.0016  14.8915  14.8338  14.7559  14.7125  15.4108  15.3813  15.2317  15.0914  14.9944  16.4378  15.8928  15.5521  15.4125  15.4193  16.0247  17.7378  16.7841  16.1578  16.6631  16.4962  16.1955  16.0412  15.8653  15.5478  15.5087  17.9691  17.4974  16.7861  16.1475  16.5657  16.7084  16.4847  16.2468  16.0258  15.8833  15.5501  15.5094  15.4020  15.3603  15.2766  15.2075  15.1451  16.0198  16.2757  15.5849 # Blackbody T = 6500.000
  15.3677  15.2797  15.1629  15.1382  15.1105  15.0534  14.9721  14.9265  14.9114  14.8984  14.8944  14.8863  15.3094  15.2917  15.5125  15.3375  15.2469  15.1320  15.1364  15.1058  15.0695  15.0455  15.0381  14.9991  15.0240  15.0085  15.0083  14.9596  14.9400  14.9245  14.9202  14.9159  14.9057  14.8968  14.8921  14.8515  14.8725  14.8663  14.8650  14.8520  14.8209  14.8543  14.8524  14.8376  14.8120  14.7942  14.7844  14.7799  14.7716  14.7625  14.7566  14.7488  16.8141  16.0899  15.8305  15.7768  15.8192  15.9352  16.3755  15.9481  15.6673  15.4153  15.9658  16.3757  15.9508  15.5888  15.3826  15.2514  15.1032  15.0595  14.9307  14.9121  14.8587  14.9837  14.9250  14.8605  14.8165  15.2022  15.0701  15.0000  14.8968  14.8615  14.8380  14.8117  14.7520  14.7095  14.6769  15.3817  15.2030  15.0015  14.9088  14.8598  14.7934  14.7549  15.3237  15.3172  15.1903  15.0734  14.9952  16.2038  15.7315  15.4356  15.3224  15.3455  15.8529  17.1241  16.2894  15.7726  16.3846  16.2536  15.9931  15.8614  15.7078  15.4364  15.4078  17.3227  16.9076  16.2860  15.7639  16.2512  16.4346  16.2443  16.0400  15.8477  15.7236  15.4384  15.4085  15.3382  15.3030  15.2336  15.1748  15.1224  15.8504  16.0570  15.4702 # Blackbody T = 7000.000
  15.2957  15.2359  15.1374  15.1166  15.0928  15.0491  14.9807  14.9432  14.9295  14.9194  14.9158  14.9093  15.2566  15.2413  15.4012  15.2657  15.2034  15.1067  15.1118  15.0846  15.0544  15.0312  15.0303  14.9924  15.0196  15.0072  15.0077  14.9658  14.9490  14.9367  14.9327  14.9305  14.9211  14.9134  14.9095  14.8715  14.8925  14.8875  14.8863  14.8747  14.8437  14.8772  14.8757  14.8633  14.8415  14.8262  14.8175  14.8137  14.8064  14.7981  14.7928  14.7857  16.5058  15.8880  15.6953  15.6804  15.7487  15.6350  16.1462  15.7829  15.5394  15.3265  15.6707  16.1466  15.7853  15.4694  15.3035  15.2129  15.0881  15.0596  14.9468  14.9356  14.8900  15.0157  14.9613  14.8988  14.8556  15.1657  15.0555  15.0000  14.9134  14.8833  14.8636  14.8413  14.7886  14.7482  14.7163  15.2907  15.1659  15.0014  14.9236  14.8820  14.8255  14.7913  15.2496  15.2628  15.1551  15.0582  14.9960  16.0038  15.5940  15.3365  15.2458  15.2828  15.7048  16.5936  15.8632  15.4426  16.1464  16.0461  15.8206  15.7077  15.5735  15.3416  15.3218  16.7652  16.3985  15.8561  15.4353  15.9819  16.2009  16.0387  15.8633  15.6955  15.5876  15.3433  15.3226  15.2838  15.2542  15.1969  15.1469  15.1030  15.7034  15.8682  15.3723 # Blackbody T = 7500.000
  15.2336  15.1981  15.1155  15.0980  15.0775  15.0454  14.9880  14.9575  14.9451  14.9376  14.9343  14.9291  15.2095  15.1965  15.3055  15.2039  15.1660  15.0849  15.0905  15.0663  15.0414  15.0190  15.0236  14.9866  15.0158  15.0061  15.0072  14.9711  14.9567  14.9471  14.9434  14.9430  14.9345  14.9279  14.9246  14.8888  14.9099  14.9058  14.9047  14.8943  14.8634  14.8971  14.8958  14.8856  14.8670  14.8540  14.8462  14.8431  14.8365  14.8290  14.8242  14.8177  16.2392  15.7138  15.5790  15.5976  15.6881  15.3753  15.9481  15.6406  15.4291  15.2501  15.4156  15.9487  15.6427  15.3665  15.2355  15.1798  15.0750  15.0598  14.9607  14.9560  14.9171  15.0435  14.9928  14.9321  14.8895  15.1343  15.0428  15.0000  14.9278  14.9022  14.8859  14.8669  14.8203  14.7818  14.7504  15.2124  15.1340  15.0013  14.9365  14.9012  14.8532  14.8228  15.1859  15.2160  15.1248  15.0450  14.9966  15.8311  15.4757  15.2513  15.1799  15.2289  15.5760  16.1311  15.4926  15.1572  15.9407  15.8669  15.6719  15.5749  15.4580  15.2602  15.2477  16.2800  15.9553  15.4832  15.1512  15.7492  15.9993  15.8611  15.7108  15.5640  15.4704  15.2616  15.2486  15.2370  15.2120  15.1654  15.1229  15.0864  15.5749  15.7038  15.2879 # Blackbody T = 8000.000
  15.1798  15.1653  15.0965  15.0818  15.0641  15.0421  14.9944  14.9701  14.9588  14.9534  14.9505  14.9465  15.1674  15.1563  15.2223  15.1502  15.1335  15.0660  15.0718  15.0504  15.0301  15.0083  15.0177  14.9815  15.0125  15.0051  15.0068  14.9758  14.9635  14.9563  14.9528  14.9540  14.9461  14.9405  14.9377  14.9040  14.9250  14.9217  14.9207  14.9114  14.8806  14.9145  14.9133  14.9050  14.8894  14.8783  14.8713  14.8687  14.8629  14.8560  14.8516  14.8457  16.0068  15.5620  15.4779  15.5256  15.6355  15.1490  15.7756  15.5170  15.3333  15.1839  15.1932  15.7764  15.5188  15.2770  15.1763  15.1510  15.0637  15.0599  14.9728  14.9738  14.9408  15.0678  15.0204  14.9613  14.9192  15.1070  15.0319  15.0000  14.9403  14.9186  14.9053  14.8893  14.8481  14.8113  14.7804  15.1445  15.1062  15.0012  14.9476  14.9180  14.8776  14.8505  15.1306  15.1753  15.0984  15.0335  14.9972  15.6808  15.3730  15.1773  15.1228  15.1821  15.4631  15.7248  15.1678  14.9084  15.7616  15.7108  15.5427  15.4593  15.3576  15.1894  15.1834  15.8546  15.5663  15.1572  14.9036  15.5463  15.8240  15.7065  15.5780  15.4496  15.3686  15.1907  15.1843  15.1963  15.1754  15.1379  15.1020  15.0718  15.4618  15.5595  15.2145 # Blackbody T = 8500.000
  15.1326  15.1366  15.0798  15.0676  15.0524  15.0393  15.0000  14.9811  14.9707  14.9674  14.9647  14.9617  15.1295  15.1203  15.1495  15.1032  15.1050  15.0493  15.0553  15.0364  15.0201  14.9989  15.0126  14.9771  15.0096  15.0043  15.0064  14.9799  14.9695  14.9643  14.9611  14.9637  14.9564  14.9516  14.9492  14.9173  14.9383  14.9358  14.9349  14.9265  14.8957  14.9297  14.9288  14.9222  14.9090  14.8997  14.8934  14.8914  14.8861  14.8799  14.8758  14.8704  15.8026  15.4288  15.3894  15.4626  15.5894  14.9502  15.6242  15.4086  15.2493  15.1258  14.9980  15.6251  15.4103  15.1985  15.1244  15.1257  15.0538  15.0600  14.9834  14.9894  14.9618  15.0892  15.0447  14.9870  14.9454  15.0830  15.0222  15.0000  14.9513  14.9331  14.9224  14.9090  14.8726  14.8373  14.8068  15.0849  15.0819  15.0011  14.9575  14.9328  14.8990  14.8748  15.0822  15.1397  15.0753  15.0235  14.9977  15.5488  15.2829  15.1125  15.0727  15.1411  15.3634  15.3654  14.8813  14.6897  15.6043  15.5738  15.4294  15.3577  15.2697  15.1274  15.1270  15.4789  15.2225  14.8699  14.6860  15.3680  15.6703  15.5707  15.4615  15.3491  15.2795  15.1286  15.1280  15.1606  15.1432  15.1139  15.0837  15.0591  15.3614  15.4320  15.1500 # Blackbody T = 9000.000
  15.0909  15.1112  15.0650  15.0551  15.0420  15.0367  15.0050  14.9909  14.9813  14.9798  14.9774  14.9753  15.0953  15.0878  15.0852  15.0616  15.0798  15.0346  15.0406  15.0240  15.0114  14.9906  15.0080  14.9732  15.0070  15.0035  15.0060  14.9836  14.9747  14.9715  14.9684  14.9722  14.9655  14.9614  14.9595  14.9291  14.9502  14.9483  14.9475  14.9399  14.9092  14.9433  14.9426  14.9374  14.9265  14.9188  14.9131  14.9115  14.9068  14.9011  14.8974  14.8923  15.6221  15.3111  15.3113  15.4071  15.5487  14.7743  15.4904  15.3131  15.1752  15.0746  14.8254  15.4914  15.3145  15.1291  15.0786  15.1034  15.0450  15.0601  14.9929  15.0033  14.9803  15.1083  15.0663  15.0099  14.9687  15.0619  15.0137  15.0000  14.9611  14.9460  14.9376  14.9265  14.8944  14.8604  14.8303  15.0325  15.0604  15.0010  14.9662  14.9459  14.9181  14.8965  15.0395  15.1083  15.0549  15.0145  14.9981  15.4322  15.2035  15.0553  15.0285  15.1049  15.2749  15.0455  14.6268  14.4962  15.4654  15.4527  15.3295  15.2680  15.1921  15.0728  15.0772  15.1450  14.9169  14.6153  14.4936  15.2104  15.5347  15.4507  15.3586  15.2602  15.2008  15.0738  15.0782  15.1291  15.1146  15.0926  15.0675  15.0478  15.2719  15.3185  15.0931 # Blackbody T = 9500.000
  15.0539  15.0885  15.0519  15.0439  15.0327  15.0345  15.0094  14.9996  14.9907  14.9908  14.9886  14.9873  15.0643  15.0583  15.0281  15.0247  15.0574  15.0216  15.0274  15.0130  15.0035  14.9832  15.0040  14.9697  15.0047  15.0028  15.0057  14.9868  14.9794  14.9778  14.9749  14.9799  14.9736  14.9702  14.9687  14.9396  14.9607  14.9594  14.9587  14.9518  14.9212  14.9554  14.9549  14.9510  14.9421  14.9358  14.9307  14.9295  14.9253  14.9201  14.9167  14.9120  15.4614  15.2064  15.2419  15.3577  15.5125  14.6179  15.3714  15.2281  15.1092  15.0291  14.6718  15.3725  15.2294  15.0674  15.0379  15.0835  15.0371  15.0601  15.0013  15.0157  14.9969  15.1253  15.0857  15.0304  14.9896  15.0431  15.0061  15.0000  14.9699  14.9575  14.9511  14.9422  14.9139  14.8811  14.8513  14.9858  15.0413  15.0009  14.9740  14.9576  14.9351  14.9159  15.0016  15.0803  15.0367  15.0066  14.9985  15.3286  15.1330  15.0046  14.9893  15.0727  15.1957  14.7593  14.3995  14.3241  15.3418  15.3450  15.2407  15.1881  15.1232  15.0242  15.0329  14.8466  14.6435  14.3881  14.3224  15.0702  15.4141  15.3440  15.2670  15.1812  15.1309  15.0251  15.0340  15.1010  15.0893  15.0737  15.0530  15.0378  15.1917  15.2170  15.0424 # Blackbody T = 10000.000
  14.9909  15.0501  15.0295  15.0248  15.0169  15.0306  15.0169  15.0145  15.0068  15.0097  15.0079  15.0080  15.0104  15.0071  14.9311  14.9620  15.0193  14.9993  15.0049  14.9943  14.9902  14.9707  14.9971  14.9637  15.0008  15.0017  15.0052  14.9924  14.9874  14.9887  14.9861  14.9929  14.9874  14.9852  14.9843  14.9576  14.9788  14.9785  14.9779  14.9723  14.9417  14.9761  14.9758  14.9742  14.9689  14.9650  14.9608  14.9603  14.9570  14.9526  14.9497  14.9457  15.1884  15.0285  15.1242  15.2739  15.4511  14.3520  15.1693  15.0841  14.9973  14.9518  14.4110  15.1706  15.0851  14.9626  14.9686  15.0497  15.0237  15.0603  15.0157  15.0370  15.0254  15.1544  15.1189  15.0655  15.0253  15.0111  14.9932  15.0000  14.9848  14.9771  14.9743  14.9690  14.9473  14.9166  14.8874  14.9067  15.0087  15.0008  14.9873  14.9777  14.9643  14.9491  14.9372  15.0328  15.0058  14.9931  14.9992  15.1525  15.0133  14.9184  14.9227  15.0181  15.0604  14.2693  14.0116  14.0315  15.1319  15.1619  15.0900  15.0524  15.0063  14.9418  14.9577  14.3366  14.1761  14.0011  14.0314  14.8319  15.2097  15.1627  15.1115  15.0468  15.0122  14.9424  14.9588  15.0533  15.0461  15.0415  15.0284  15.0206  15.0539  15.0433  14.9563 # Blackbody T = 11000.000
  14.9395  15.0186  15.0112  15.0092  15.0039  15.0275  15.0230  15.0267  15.0200  15.0253  15.0238  15.0250  14.9652  14.9643  14.8521  14.9108  14.9881  14.9811  14.9863  14.9789  14.9793  14.9604  14.9914  14.9589  14.9976  15.0008  15.0048  14.9970  14.9940  14.9976  14.9952  15.0037  14.9988  14.9975  14.9972  14.9725  14.9936  14.9942  14.9937  14.9891  14.9586  14.9932  14.9931  14.9934  14.9909  14.9891  14.9857  14.9858  14.9832  14.9794  14.9770  14.9735  14.9657  14.8833  15.0283  15.2055  15.4009  14.1350  15.0045  14.9668  14.9060  14.8888  14.1982  15.0060  14.9675  14.8769  14.9121  15.0221  15.0128  15.0604  15.0276  15.0544  15.0489  15.1785  15.1462  15.0945  15.0549  14.9849  14.9826  15.0000  14.9970  14.9933  14.9935  14.9911  14.9749  14.9459  14.9172  14.8421  14.9821  15.0007  14.9982  14.9942  14.9884  14.9766  14.8846  14.9941  14.9805  14.9820  14.9997  15.0089  14.9157  14.8482  14.8683  14.9735  14.9491  13.8662  13.6934  13.7928  14.9608  15.0126  14.9673  14.9414  14.9110  14.8745  14.8963  13.9178  13.7920  13.6844  13.7941  14.6374  15.0431  15.0148  14.9846  14.9371  14.9155  14.8750  14.8974  15.0143  15.0107  15.0151  15.0083  15.0066  14.9401  14.9004  14.8859 # Blackbody T = 12000.000
  14.8968  14.9924  14.9959  14.9962  14.9931  15.0248  15.0281  15.0370  15.0310  15.0383  15.0371  15.0392  14.9268  14.9279  14.7865  14.8682  14.9621  14.9659  14.9707  14.9661  14.9702  14.9518  14.9867  14.9548  14.9949  15.0000  15.0044  15.0008  14.9995  15.0051  15.0029  15.0127  15.0084  15.0078  15.0079  14.9849  15.0061  15.0073  15.0069  15.0032  14.9728  15.0075  15.0076  15.0095  15.0095  15.0092  15.0065  15.0071  15.0051  15.0020  14.9999  14.9969  14.7809  14.7629  14.9487  15.1487  15.3592  13.9550  14.8678  14.8695  14.8302  14.8365  14.0218  14.8694  14.8701  14.8058  14.8651  14.9990  15.0036  15.0605  15.0375  15.0691  15.0686  15.1987  15.1692  15.1189  15.0798  14.9631  14.9738  15.0000  15.0073  15.0069  15.0095  15.0097  14.9981  14.9706  14.9422  14.7885  14.9599  15.0006  15.0074  15.0080  15.0086  14.9996  14.8409  14.9618  14.9595  14.9728  15.0002  14.8896  14.8348  14.7899  14.8232  14.9365  14.8562  13.5296  13.4283  13.5947  14.8188  14.8887  14.8655  14.8493  14.8320  14.8187  14.8453  13.5686  13.4716  13.4210  13.5972  14.4761  14.9051  14.8921  14.8793  14.8459  14.8352  14.8191  14.8464  14.9819  14.9812  14.9931  14.9915  14.9949  14.8447  14.7809  14.8273 # Blackbody T = 13000.000
  14.8608  14.9703  14.9830  14.9852  14.9838  15.0226  15.0325  15.0457  15.0403  15.0494  15.0484  15.0513  14.8939  14.8967  14.7311  14.8323  14.9401  14.9530  14.9574  14.9553  14.9625  14.9445  14.9827  14.9513  14.9926  14.9993  15.0041  15.0040  15.0042  15.0115  15.0093  15.0203  15.0165  15.0166  15.0171  14.9955  15.0167  15.0185  15.0182  15.0152  14.9848  15.0197  15.0200  15.0232  15.0252  15.0264  15.0243  15.0253  15.0238  15.0212  15.0194  15.0168  14.6255  14.6615  14.8817  15.1009  15.3240  13.8036  14.7527  14.7876  14.7664  14.7923  13.8733  14.7544  14.7880  14.7458  14.8254  14.9796  14.9959  15.0605  15.0459  15.0816  15.0853  15.2159  15.1888  15.1396  15.1009  14.9446  14.9663  15.0000  15.0161  15.0184  15.0232  15.0255  15.0179  14.9915  14.9636  14.7433  14.9411  15.0006  15.0151  15.0198  15.0258  15.0193  14.8041  14.9346  14.9417  14.9650  15.0006  14.7893  14.7666  14.7407  14.7851  14.9052  14.7776  13.2449  13.2046  13.4281  14.6994  14.7843  14.7798  14.7716  14.7654  14.7716  14.8022  13.2736  13.2008  13.1991  13.4316  14.3403  14.7891  14.7887  14.7905  14.7691  14.7676  14.7719  14.8034  14.9544  14.9563  14.9746  14.9773  14.9850  14.7637  14.6796  14.7779 # Blackbody T = 14000.000
  14.8300  14.9514  14.9720  14.9757  14.9759  15.0206  15.0361  15.0532  15.0483  15.0589  15.0582  15.0616  14.8654  14.8697  14.6839  14.8016  14.9214  14.9420  14.9460  14.9460  14.9559  14.9383  14.9793  14.9484  14.9907  14.9987  15.0039  15.0068  15.0082  15.0169  15.0149  15.0268  15.0235  15.0242  15.0250  15.0045  15.0258  15.0281  15.0279  15.0256  14.9952  15.0302  15.0306  15.0349  15.0388  15.0412  15.0396  15.0410  15.0399  15.0377  15.0362  15.0339  14.4931  14.5750  14.8245  15.0600  15.2940  13.6746  14.6546  14.7178  14.7119  14.7546  13.7469  14.6564  14.7181  14.6946  14.7915  14.9629  14.9893  15.0606  15.0532  15.0923  15.0998  15.2307  15.2057  15.1575  15.1192  14.9288  14.9598  15.0000  15.0236  15.0283  15.0349  15.0391  15.0349  15.0096  14.9820  14.7047  14.9251  15.0005  15.0218  15.0299  15.0406  15.0362  14.7726  14.9113  14.9265  14.9583  15.0009  14.7037  14.7085  14.6988  14.7526  14.8784  14.7102  13.0013  13.0136  13.2862  14.5976  14.6953  14.7068  14.7053  14.7086  14.7315  14.7654  13.0216  12.9693  13.0099  13.2906  14.2246  14.6903  14.7006  14.7149  14.7035  14.7100  14.7316  14.7666  14.9310  14.9349  14.9587  14.9651  14.9765  14.6940  14.5928  14.7357 # Blackbody T = 15000.000
  14.8033  14.9350  14.9624  14.9676  14.9691  15.0190  15.0394  15.0597  15.0552  15.0672  15.0666  15.0707  14.8404  14.8460  14.6432  14.7751  14.9051  14.9325  14.9361  14.9379  14.9502  14.9328  14.9763  14.9458  14.9890  14.9982  15.0037  15.0092  15.0117  15.0217  15.0198  15.0325  15.0295  15.0307  15.0318  15.0124  15.0337  15.0365  15.0363  15.0345  15.0042  15.0392  15.0398  15.0451  15.0505  15.0541  15.0529  15.0546  15.0540  15.0521  15.0508  15.0488  14.3792  14.5004  14.7752  15.0248  15.2680  13.5635  14.5701  14.6577  14.6648  14.7221  13.6380  14.5720  14.6578  14.6504  14.7622  14.9485  14.9835  15.0607  15.0595  15.1016  15.1123  15.2435  15.2204  15.1731  15.1350  14.9152  14.9543  15.0000  15.0301  15.0370  15.0451  15.0509  15.0497  15.0254  14.9980  14.6714  14.9112  15.0004  15.0276  15.0387  15.0535  15.0509  14.7454  14.8911  14.9133  14.9524  15.0012  14.6299  14.6583  14.6626  14.7245  14.8553  14.6519  12.7910  12.8489  13.1640  14.5099  14.6186  14.6439  14.6481  14.6596  14.6968  14.7336  12.8042  12.7695  12.8468  13.1692  14.1250  14.6053  14.6246  14.6496  14.6469  14.6602  14.6968  14.7348  14.9107  14.9164  14.9449  14.9545  14.9692  14.6336  14.5177  14.6992 # Blackbody T = 16000.000
  14.7801  14.9206  14.9540  14.9604  14.9631  15.0175  15.0421  15.0654  15.0613  15.0744  15.0740  15.0786  14.8184  14.8252  14.6077  14.7519  14.8909  14.9242  14.9274  14.9309  14.9451  14.9281  14.9737  14.9436  14.9875  14.9978  15.0035  15.0113  15.0148  15.0258  15.0240  15.0375  15.0348  15.0365  15.0378  15.0194  15.0406  15.0438  15.0437  15.0424  15.0121  15.0472  15.0479  15.0541  15.0609  15.0654  15.0646  15.0666  15.0663  15.0647  15.0637  15.0619  14.2801  14.4355  14.7323  14.9940  15.2453  13.4670  14.4967  14.6053  14.6238  14.6937  13.5434  14.4986  14.6054  14.6118  14.7366  14.9359  14.9785  15.0607  15.0650  15.1098  15.1233  15.2548  15.2333  15.1868  15.1490  14.9032  14.9494  15.0000  15.0358  15.0445  15.0541  15.0613  15.0627  15.0392  15.0121  14.6423  14.8990  15.0004  15.0327  15.0464  15.0648  15.0638  14.7217  14.8735  14.9017  14.9474  15.0014  14.5658  14.6147  14.6310  14.7000  14.8352  14.6009  12.6078  12.7055  13.0579  14.4336  14.5518  14.5891  14.5982  14.6169  14.6665  14.7059  12.6149  12.5955  12.7051  13.0638  14.0383  14.5313  14.5585  14.5928  14.5975  14.6169  14.6665  14.7071  14.8929  14.9002  14.9329  14.9453  14.9627  14.5808  14.4520  14.6674 # Blackbody T = 17000.000
  14.7596  14.9080  14.9466  14.9541  14.9578  15.0162  15.0446  15.0704  15.0666  15.0808  15.0806  15.0855  14.7989  14.8067  14.5765  14.7315  14.8784  14.9168  14.9198  14.9247  14.9407  14.9239  14.9714  14.9416  14.9862  14.9974  15.0033  15.0132  15.0175  15.0295  15.0278  15.0420  15.0395  15.0415  15.0431  15.0255  15.0467  15.0503  15.0502  15.0494  15.0191  15.0543  15.0550  15.0621  15.0701  15.0754  15.0749  15.0772  15.0772  15.0759  15.0751  15.0736  14.1933  14.3786  14.6945  14.9670  15.2253  13.3824  14.4322  14.5594  14.5878  14.6688  13.4605  14.4342  14.5594  14.5779  14.7141  14.9247  14.9740  15.0608  15.0699  15.1170  15.1331  15.2648  15.2447  15.1989  15.1614  14.8927  14.9451  15.0000  15.0409  15.0512  15.0620  15.0705  15.0743  15.0515  15.0245  14.6167  14.8883  15.0003  15.0372  15.0532  15.0748  15.0753  14.7008  14.8581  14.8916  14.9429  15.0016  14.5094  14.5763  14.6032  14.6784  14.8174  14.5561  12.4469  12.5797  12.9649  14.3667  14.4932  14.5410  14.5544  14.5795  14.6399  14.6815  12.4489  12.4428  12.5808  12.9714  13.9623  14.4665  14.5005  14.5429  14.5542  14.5789  14.6399  14.6827  14.8773  14.8860  14.9223  14.9372  14.9570  14.5342  14.3943  14.6394 # Blackbody T = 18000.000
  14.7415  14.8968  14.9401  14.9485  14.9530  15.0151  15.0468  15.0749  15.0714  15.0865  15.0864  15.0918  14.7815  14.7902  14.5488  14.7135  14.8673  14.9103  14.9129  14.9191  14.9368  14.9202  14.9693  14.9398  14.9850  14.9971  15.0031  15.0148  15.0199  15.0328  15.0311  15.0459  15.0437  15.0461  15.0478  15.0309  15.0522  15.0561  15.0560  15.0556  15.0253  15.0606  15.0614  15.0691  15.0782  15.0844  15.0842  15.0866  15.0869  15.0859  15.0852  15.0839  14.1166  14.3282  14.6611  14.9430  15.2076  13.3076  14.3752  14.5187  14.5559  14.6466  13.3873  14.3773  14.5186  14.5479  14.6941  14.9149  14.9701  15.0608  15.0742  15.1235  15.1418  15.2738  15.2549  15.2097  15.1724  14.8833  14.9413  15.0000  15.0454  15.0572  15.0691  15.0787  15.0845  15.0624  15.0357  14.5941  14.8788  15.0003  15.0412  15.0593  15.0837  15.0855  14.6823  14.8443  14.8826  14.9389  15.0018  14.4596  14.5424  14.5787  14.6593  14.8016  14.5163  12.3046  12.4686  12.8827  14.3076  14.4414  14.4985  14.5156  14.5463  14.6163  14.6599  12.3022  12.3078  12.4711  12.8898  13.8951  14.4092  14.4491  14.4988  14.5158  14.5452  14.6162  14.6611  14.8635  14.8734  14.9129  14.9299  14.9520  14.4928  14.3430  14.6146 # Blackbody T = 19000.000
  14.7253  14.8868  14.9342  14.9435  14.9488  15.0140  15.0488  15.0789  15.0757  15.0916  15.0916  15.0974  14.7658  14.7754  14.5242  14.6973  14.8573  14.9045  14.9068  14.9142  14.9333  14.9169  14.9675  14.9383  14.9840  14.9968  15.0030  15.0163  15.0220  15.0357  15.0341  15.0494  15.0475  15.0501  15.0521  15.0358  15.0571  15.0612  15.0612  15.0611  15.0309  15.0662  15.0671  15.0755  15.0855  15.0924  15.0924  15.0951  15.0956  15.0949  15.0943  15.0932  14.0485  14.2834  14.6314  14.9217  15.1919  13.2412  14.3246  14.4825  14.5275  14.6269  13.3222  14.3267  14.4824  14.5212  14.6763  14.9061  14.9666  15.0608  15.0781  15.1292  15.1496  15.2818  15.2640  15.2194  15.1823  14.8750  14.9379  15.0000  15.0494  15.0625  15.0754  15.0860  15.0938  15.0722  15.0457  14.5739  14.8703  15.0003  15.0448  15.0647  15.0917  15.0947  14.6658  14.8321  14.8745  14.9353  15.0020  14.4152  14.5122  14.5567  14.6423  14.7876  14.4808  12.1781  12.3698  12.8098  14.2550  14.3953  14.4606  14.4811  14.5167  14.5953  14.6406  12.1718  12.1877  12.3736  12.8173  13.8354  14.3583  14.4035  14.4595  14.4816  14.5152  14.5952  14.6418  14.8511  14.8620  14.9045  14.9235  14.9475  14.4558  14.2973  14.5924 # Blackbody T = 20000.000
  14.6258  14.8250  14.8979  14.9124  14.9226  15.0076  15.0609  15.1039  15.1021  15.1235  15.1243  15.1321  14.6676  14.6824  14.3733  14.5982  14.7961  14.8684  14.8687  14.8836  14.9115  14.8964  14.9561  14.9285  14.9775  14.9949  15.0022  15.0256  15.0354  15.0539  15.0527  15.0714  15.0708  15.0754  15.0784  15.0663  15.0876  15.0935  15.0937  15.0958  15.0658  15.1014  15.1028  15.1151  15.1313  15.1424  15.1442  15.1482  15.1502  15.1509  15.1514  15.1514  13.6366  14.0106  14.4497  14.7907  15.0948  12.8393  14.0168  14.2620  14.3537  14.5059  12.9284  14.0192  14.2615  14.3572  14.5669  14.8516  14.9447  15.0610  15.1023  15.1653  15.1984  15.3318  15.3213  15.2802  15.2443  14.8234  14.9167  15.0000  15.0745  15.0958  15.1149  15.1319  15.1515  15.1337  15.1082  14.4501  14.8179  15.0001  15.0671  15.0987  15.1418  15.1521  14.5644  14.7565  14.8247  14.9132  15.0031  14.1454  14.3275  14.4224  14.5375  14.7011  14.2628  11.4141  11.7729  12.3690  13.9359  14.1149  14.2301  14.2699  14.3361  14.4665  14.5221  11.3861  11.4633  11.7860  12.3796  13.4736  14.0494  14.1257  14.2199  14.2728  14.3318  14.4660  14.5234  14.7748  14.7923  14.8525  14.8835  14.9195  14.2278  14.0168  14.4565 # Blackbody T = 30000.000
  14.5780  14.7952  14.8804  14.8973  14.9098  15.0045  15.0668  15.1162  15.1150  15.1392  15.1403  15.1491  14.6192  14.6367  14.3012  14.5506  14.7665  14.8509  14.8501  14.8688  14.9009  14.8864  14.9506  14.9237  14.9743  14.9940  15.0017  15.0301  15.0419  15.0628  15.0617  15.0821  15.0822  15.0877  15.0914  15.0813  15.1026  15.1093  15.1096  15.1128  15.0829  15.1187  15.1203  15.1345  15.1538  15.1671  15.1697  15.1743  15.1771  15.1786  15.1794  15.1801  13.4443  13.8818  14.3633  14.7281  15.0481  12.6516  13.8721  14.1576  14.2709  14.4479  12.7444  13.8746  14.1569  14.2790  14.5143  14.8253  14.9341  15.0611  15.1142  15.1830  15.2224  15.3564  15.3495  15.3102  15.2749  14.7985  14.9064  15.0000  15.0868  15.1121  15.1343  15.1545  15.1800  15.1640  15.1391  14.3908  14.7925  15.0000  15.0781  15.1154  15.1664  15.1803  14.5158  14.7202  14.8007  14.9025  15.0037  14.0180  14.2397  14.3582  14.4873  14.6595  14.1586  11.0605  11.4958  12.1636  13.7860  13.9825  14.1210  14.1696  14.2503  14.4048  14.4653  11.0236  11.1280  11.5137  12.1756  13.3041  13.9044  13.9946  14.1065  14.1735  14.2447  14.4043  14.4666  14.7380  14.7586  14.8274  14.8641  14.9059  14.1184  13.8833  14.3914 # Blackbody T = 40000.000
  14.5500  14.7777  14.8700  14.8885  14.9023  15.0027  15.0703  15.1234  15.1226  15.1484  15.1498  15.1592  14.5906  14.6096  14.2592  14.5226  14.7491  14.8406  14.8391  14.8600  14.8947  14.8805  14.9474  14.9209  14.9724  14.9935  15.0015  15.0328  15.0458  15.0681  15.0671  15.0885  15.0890  15.0951  15.0990  15.0901  15.1115  15.1187  15.1191  15.1229  15.0930  15.1289  15.1306  15.1461  15.1672  15.1817  15.1849  15.1898  15.1931  15.1950  15.1962  15.1972  13.3336  13.8071  14.3129  14.6914  15.0208  12.5434  13.7883  14.0968  14.2226  14.4140  12.6383  13.7909  14.0960  14.2333  14.4835  14.8098  14.9278  15.0612  15.1212  15.1935  15.2366  15.3711  15.3663  15.3281  15.2931  14.7838  14.9004  15.0000  15.0941  15.1218  15.1458  15.1679  15.1969  15.1821  15.1575  14.3561  14.7776  14.9999  15.0845  15.1252  15.1811  15.1972  14.4872  14.6988  14.7865  14.8961  15.0040  13.9441  14.1885  14.3207  14.4578  14.6351  14.0978  10.8590  11.3371  12.0455  13.6992  13.9058  14.0575  14.1112  14.2002  14.3688  14.4320  10.8173  10.9367  11.3579  12.0583  13.2062  13.8204  13.9186  14.0406  14.1157  14.1938  14.3681  14.4334  14.7164  14.7387  14.8126  14.8527  14.8979  14.0544  13.8055  14.3533 # Blackbody T = 50000.000
  14.4954  14.7434  14.8497  14.8710  14.8874  14.9990  15.0771  15.1378  15.1376  15.1668  15.1685  15.1791  14.5341  14.5562  14.1776  14.4682  14.7151  14.8204  14.8174  14.8429  14.8825  14.8690  14.9409  14.9154  14.9688  14.9924  15.0010  15.0381  15.0534  15.0785  15.0777  15.1010  15.1023  15.1095  15.1141  15.1076  15.1290  15.1373  15.1378  15.1429  15.1131  15.1492  15.1512  15.1689  15.1936  15.2107  15.2149  15.2206  15.2248  15.2276  15.2293  15.2310  13.1229  13.6636  14.2154  14.6203  14.9675  12.3375  13.6277  13.9797  14.1291  14.3480  12.4363  13.6304  13.9787  14.1447  14.4236  14.7795  14.9155  15.0613  15.1351  15.2142  15.2649  15.4001  15.3996  15.3635  15.3293  14.7551  14.8885  15.0000  15.1085  15.1410  15.1686  15.1944  15.2305  15.2179  15.1939  14.2887  14.7484  14.9998  15.0973  15.1448  15.2101  15.2305  14.4317  14.6571  14.7588  14.8837  15.0046  13.8020  14.0895  14.2478  14.4005  14.5875  13.9802  10.4817  11.0380  11.8213  13.5331  13.7584  13.9353  13.9983  14.1033  14.2987  14.3673  10.4320  10.5783  11.0644  11.8356  13.0193  13.6597  13.7726  13.9137  14.0040  14.0955  14.2979  14.3687  14.6742  14.7000  14.7836  14.8303  14.8822  13.9304  13.6555  14.2793 # Blackbody T = 100000.000
