# Normalization: A0V magnitude 15.000000 for filter 2MASS Ks
# 
# Magnitude listing:
#
# Index Filter Name         Effective Wavelength (microns)  Zero Magnitude Flux Density (W/m^2/micron and Jy)
#      1 NIRISS F090W                       0.9025             6.745056e-09            1832.3900
#      2 NIRISS F115W                       1.1495             4.003927e-09            1764.8800
#      3 NIRISS F140M                       1.4040             1.955686e-09            1285.9800
#      4 NIRISS F150W                       1.4935             1.568060e-09            1166.6150
#      5 NIRISS F158M                       1.5820             1.280165e-09            1068.7210
#      6 NIRISS F200W                       1.9930             5.633124e-10             746.3219
#      7 NIRISS F277W                       2.7643             1.579440e-10             402.5751
#      8 NIRISS F356W                       3.5930             6.054428e-11             260.7161
#      9 NIRISS F380M                       3.8252             4.718752e-11             230.3143
#     10 NIRISS F430M                       4.2838             3.076813e-11             188.3407
#     11 NIRISS F444W                       4.4277             2.703697e-11             176.8046
#     12 NIRISS F480M                       4.8152             1.952216e-11             150.9884
#     13 Guider 1                           2.5011             2.388653e-10             498.4101
#     14 Guider 2                           2.5917             2.100422e-10             470.5862
#     15 NIRCam F070W                       0.7049             1.731883e-08            2870.2820
#     16 NIRCam F090W                       0.9034             7.554502e-09            2056.6650
#     17 NIRCam F115W                       1.1540             3.950106e-09            1754.5350
#     18 NIRCam F140M                       1.4060             1.946400e-09            1283.3750
#     19 NIRCam F150W                       1.6589             1.111587e-09            1020.3390
#     20 NIRCam F150W2                      1.5001             1.542904e-09            1158.1550
#     21 NIRCam F162M                       1.6276             1.182384e-09            1044.8130
#     22 NIRCam F164N                       1.6447             1.059261e-09             955.8099
#     23 NIRCam F182M                       1.8453             7.498027e-10             851.6233
#     24 NIRCam F187M                       1.8738             6.212610e-10             727.5810
#     25 NIRCam F200W                       1.9887             5.678360e-10             749.1183
#     26 NIRCam F210M                       2.0953             4.665281e-10             683.2059
#     27 NIRCam F212N                       2.1219             4.444403e-10             667.5004
#     28 NIRCam F250M                       2.5039             2.383666e-10             498.5113
#     29 NIRCam F277W                       2.7500             1.637954e-10             413.1801
#     30 NIRCam F300M                       2.9887             1.228666e-10             366.0818
#     31 NIRCam F322W2                      3.2307             9.109007e-11             317.1383
#     32 NIRCam F323N                       3.2365             9.046063e-11             316.0664
#     33 NIRCam F335M                       3.3578             7.853542e-11             295.3586
#     34 NIRCam F356W                       3.5642             6.245112e-11             264.6374
#     35 NIRCam F360M                       3.6247             5.852460e-11             256.4892
#     36 NIRCam F405N                       4.0506             3.537717e-11             193.6172
#     37 NIRCam F410M                       4.0720             3.722588e-11             205.8888
#     38 NIRCam F430M                       4.2822             3.081296e-11             188.4742
#     39 NIRCam F444W                       4.3849             2.718466e-11             174.3506
#     40 NIRCam F460M                       4.6350             2.236918e-11             160.2971
#     41 NIRCam F466N                       4.6543             2.058211e-11             148.7219
#     42 NIRCam F470N                       4.7083             2.123217e-11             157.0015
#     43 NIRCam F480M                       4.7941             1.985784e-11             152.2411
#     44 MIRI F560W                         5.6353             1.057174e-11             111.9832
#     45 MIRI F770W                         7.6393             3.200728e-12              62.3073
#     46 MIRI F1000W                        9.9531             1.126239e-12              37.2158
#     47 MIRI F1280W                       11.3085             6.461394e-13              27.5623
#     48 MIRI F1130W                       12.8101             4.138435e-13              22.6529
#     49 MIRI F1500W                       15.0635             2.170952e-13              16.4317
#     50 MIRI F1800W                       17.9837             1.071650e-13              11.5609
#     51 MIRI F2100W                       20.7950             5.994159e-14               8.6462
#     52 MIRI F2550W                       25.3641             2.710017e-14               5.8155
#     53 Sloan u                            0.3516             3.690704e-08            1521.6060
#     54 Sloan g                            0.4785             5.681888e-08            4338.8810
#     55 Sloan r                            0.6240             2.521913e-08            3275.3610
#     56 Sloan i                            0.7655             1.328252e-08            2596.1980
#     57 Sloan z                            0.9099             8.855897e-09            2445.8980
#     58 Bessell U                          0.3598             3.617874e-08            1562.5440
#     59 Bessell B                          0.4399             7.152951e-08            4616.9450
#     60 Bessell V                          0.5500             3.727887e-08            3762.2250
#     61 Bessell/Cousins R                  0.6556             1.561013e-08            2238.0740
#     62 Bessell/Cousins I                  0.8047             1.132167e-08            2445.2080
#     63 Johnson U                          0.3645             3.546262e-08            1571.4130
#     64 Johnson B                          0.4402             7.164254e-08            4630.9710
#     65 Johnson V                          0.5493             3.748176e-08            3772.2970
#     66 Johnson R                          0.6898             1.854689e-08            2943.9090
#     67 Johnson I                          0.8735             8.560752e-09            2178.9830
#     68 Johnson J                          1.2189             3.249713e-09            1610.5520
#     69 Johnson H                          1.6403             9.957451e-10             893.7148
#     70 Johnson K                          2.1845             3.967506e-10             631.5587
#     71 Johnson L                          3.5271             6.503124e-11             269.8538
#     72 Johnson M                          5.0122             1.669444e-11             139.8951
#     73 Johnson N                         10.2560             9.971669e-13              34.9867
#     74 IRAS [12]                         11.4062             6.556038e-13              28.4512
#     75 IRAS [25]                         23.6091             3.599342e-14               6.6921
#     76 IRAS [60]                         60.4786             8.252884e-16               1.0069
#     77 IRAS [100]                       101.1442             1.035849e-16               0.3535
#     78 2MASS J                            1.2393             3.062427e-09            1568.9350
#     79 2MASS H                            1.6495             1.114849e-09            1011.8060
#     80 2MASS Ks                           2.1639             3.679387e-10             574.6639
#     81 IRAC [3.6]                         3.5547             6.310016e-11             265.9611
#     82 IRAC [4.4]                         4.5006             2.538788e-11             171.5337
#     83 IRAC [5.7]                         5.6749             1.027267e-11             110.3501
#     84 IRAC [8.0]                         7.9139             2.786247e-12              58.2082
#     85 MIPS [24]                         23.7589             3.509937e-14               6.6090
#     86 MIPS [70]                         71.9869             4.090412e-16               0.7071
#     87 MIPS [160]                       156.4278             1.779898e-17               0.1453
#     88 DENIS i                            0.7919             1.192139e-08            2493.8720
#     89 DENIS J                            1.2337             3.110964e-09            1579.3380
#     90 DENIS Ks                           2.1605             3.946408e-10             614.4404
#     91 WISE W1                            3.3682             7.759902e-11             293.6552
#     92 WISE W2                            4.6179             2.289532e-11             162.8598
#     93 WISE W3                           12.0730             5.236614e-13              25.4602
#     94 WISE W4                           22.1943             4.613328e-14               7.5801
#     95 UKIDSS Z                           0.8826             9.346296e-09            2428.6690
#     96 UKIDSS Y                           1.0315             5.861939e-09            2080.2610
#     97 UKIDSS J                           1.2502             2.966327e-09            1546.4470
#     98 UKIDSS H                           1.6360             1.116808e-09             997.0306
#     99 UKIDSS K                           2.2060             3.838037e-10             623.0153
#    100 Pan-STARRS1 g                      0.4849             3.981886e-08            3123.1450
#    101 Pan-STARRS1 r                      0.6201             2.593247e-08            3326.3800
#    102 Pan-STARRS1 i                      0.7535             1.399369e-08            2650.1690
#    103 Pan-STARRS1 z                      0.8674             8.007634e-09            2009.7330
#    104 Pan-STARRS1 y                      0.9628             7.311309e-09            2260.6110
#    105 Pan-STARRS1 w                      0.6286             2.485600e-08            3276.0750
#    106 HST ACS F220W                      0.2253             4.620725e-08             782.4665
#    107 HST ACS F250W                      0.2717             4.118787e-08            1014.3220
#    108 HST ACS F330W                      0.3350             3.826382e-08            1432.5390
#    109 HST ACS F435W                      0.4274             7.746100e-08            4719.0020
#    110 HST ACS F475W                      0.4732             5.894561e-08            4402.2280
#    111 HST ACS F555W                      0.5346             4.058005e-08            3868.4480
#    112 HST ACS F606W                      0.5874             3.065635e-08            3528.7380
#    113 HST ACS F625W                      0.6296             2.470507e-08            3266.4570
#    114 HST ACS F775W                      0.7752             1.277154e-08            2559.8290
#    115 HST ACS F814W                      0.8298             1.027214e-08            2359.4290
#    116 HST WFC3 F218W                     0.2185             5.526740e-08             879.8247
#    117 HST WFC3 F225W                     0.2342             4.098992e-08             749.7670
#    118 HST WFC3 F275W                     0.2717             4.125767e-08            1015.8390
#    119 HST WFC3 F336W                     0.3362             3.799152e-08            1432.5010
#    120 HST WFC3 F390W                     0.3906             7.835365e-08            3987.0310
#    121 HST WFC3 F438W                     0.4320             6.657472e-08            4144.1940
#    122 HST WFC3 F475W                     0.4762             5.784444e-08            4375.3830
#    123 HST WFC3 F555W                     0.5311             4.113683e-08            3871.0150
#    124 HST WFC3 F606W                     0.5909             3.007579e-08            3502.4690
#    125 HST WFC3 F625W                     0.6256             2.512276e-08            3279.4620
#    126 HST WFC3 F775W                     0.7735             1.285991e-08            2566.5530
#    127 HST WFC3 F814W                     0.8307             1.024973e-08            2359.2620
#    128 HST WFC3 F105W                     1.0804             4.954001e-09            1929.0090
#    129 HST WFC3 F110W                     1.1550             3.937770e-09            1752.1460
#    130 HST WFC3 F125W                     1.2462             2.994458e-09            1551.2360
#    131 HST WFC3 F140W                     1.3924             2.015436e-09            1303.3490
#    132 HST WFC3 F160W                     1.5409             1.395833e-09            1105.5490
#    133 GAIA g                             0.6247             2.510122e-08            3267.2610
#    134 GAIA gbp                           0.5049             4.821772e-08            4099.5040
#    135 GAIA grp                           0.7741             1.282906e-08            2564.2110
# 
  23.1465  20.2529  18.2392  17.6456  17.1716  15.5238  13.8155  12.8401  12.6162  12.3055  12.2511  12.0337  15.4712  15.3634  25.9839  23.2082  20.1832  18.1972  16.6702  17.5783  16.9204  16.8219  15.9934  15.8547  15.5070  15.1789  15.1048  14.2047  13.7985  13.4295  13.2609  13.1290  13.0023  12.8253  12.7499  12.3952  12.4085  12.2724  12.2410  12.0764  12.0348  12.0432  12.0051  11.6981  11.2450  10.9477  10.8301  10.7464  10.6444  10.5484  10.4871  10.4122  24.6707  25.1024  24.7873  24.2420  22.5536  44.6919  37.9128  32.5890  28.1454  25.1708  44.5699  37.8991  32.5467  27.1651  23.5734  19.6677  16.9065  15.0193  12.9280  12.0233  11.0862  11.1305  10.6414  10.3798  10.2708  19.4688  16.8305  15.0000  12.8397  12.1802  11.7020  11.2329  10.4410  10.1923  10.1033  25.4199  19.5103  15.0128  13.0499  12.1273  10.9341  10.4643  23.8174  21.6975  19.3848  16.8970  14.8950  35.6729  30.0348  26.3204  24.0605  22.6077  28.1144  34.0694  35.3450  34.9142  36.3984  34.6959  33.0414  30.3227  29.7010  25.7935  24.4523  34.6874  33.4915  34.1779  35.8108  41.2096  39.0738  35.8126  32.3877  30.2370  29.7269  25.8438  24.4251  20.6122  20.0355  19.4194  18.3095  17.4127  26.3157  32.0426  24.8677 # Blackbody T = 1000.000
  21.7151  19.2641  17.6002  17.1395  16.7447  15.4338  14.0728  13.2983  13.1178  12.8727  12.8317  12.6599  15.8326  15.7437  24.7242  21.6898  19.1986  17.5592  16.5059  17.0780  16.5308  16.4434  15.7918  15.6689  15.4138  15.1407  15.0802  14.3645  14.0500  13.7521  13.6408  13.5152  13.4154  13.2784  13.2162  12.9311  12.9467  12.8393  12.8169  12.6842  12.6449  12.6589  12.6291  12.3884  12.0305  11.7942  11.6998  11.6332  11.5511  11.4734  11.4237  11.3627  24.6707  25.1013  24.7327  23.7487  21.9005  39.1856  33.9114  29.4402  25.8661  23.2451  39.0630  33.8954  29.4359  25.0412  22.0388  18.7828  16.5346  15.0313  13.3677  12.6587  11.9179  11.9798  11.5811  11.3596  11.2635  18.6016  16.4652  15.0000  13.2890  12.7684  12.3919  12.0215  11.3862  11.1793  11.1015  23.4341  18.6387  15.0112  13.4585  12.7272  11.7852  11.4053  22.0994  20.3946  18.5220  16.5212  14.9177  31.9448  27.2582  24.1649  22.2985  21.1353  25.8955  32.5421  33.7788  33.6349  34.3403  32.0732  29.9986  27.6253  26.9852  23.7510  22.7144  33.2803  32.0368  32.7793  34.5425  36.9733  35.3077  32.1844  29.4980  27.5478  27.0269  23.7891  22.6953  19.8409  19.2239  18.5839  17.6917  16.9427  24.5885  29.0881  23.1626 # Blackbody T = 1200.000
  20.6078  18.5493  17.1451  16.7747  16.4406  15.3671  14.2517  13.6177  13.4684  13.2684  13.2357  13.0958  16.0345  15.9587  23.2794  20.5714  18.4887  17.1055  16.3567  16.7178  16.2546  16.1765  15.6489  15.5388  15.3449  15.1143  15.0641  14.4778  14.2250  13.9789  13.9004  13.7864  13.7049  13.5946  13.5423  13.3054  13.3224  13.2348  13.2178  13.1076  13.0699  13.0877  13.0635  12.8679  12.5749  12.3803  12.3019  12.2470  12.1787  12.1136  12.0720  12.0206  24.6707  25.0898  24.4322  22.6634  20.9727  35.2163  30.9951  27.1426  24.1813  21.8583  35.0982  30.9796  27.1516  23.4754  20.9080  18.1451  16.2688  15.0387  13.6740  13.1002  12.4934  12.5673  12.2315  12.0381  11.9511  17.9802  16.2046  15.0000  13.6028  13.1778  12.8709  12.5678  12.0404  11.8629  11.7930  22.0050  18.0131  15.0099  13.7430  13.1446  12.3738  12.0566  20.8722  19.4652  17.9066  16.2524  14.9334  29.2583  25.2561  22.6162  21.0385  20.0826  24.2801  31.4258  32.6335  32.7039  31.7350  29.5563  27.6280  25.6670  25.0259  22.2808  21.4523  32.2478  30.9696  31.7544  33.5541  33.4844  32.0932  29.4938  27.3068  25.5962  25.0761  22.3109  21.4385  19.1500  18.5953  17.9807  17.2425  16.6062  23.2959  26.9499  21.9026 # Blackbody T = 1400.000
  19.7617  18.0106  16.8064  16.5005  16.2144  15.3160  14.3821  13.8509  13.7249  13.5574  13.5303  13.4137  16.1427  16.0760  22.0743  19.7235  17.9541  16.7681  16.2230  16.4474  16.0498  15.9794  15.5430  15.4434  15.2924  15.0952  15.0530  14.5616  14.3527  14.1455  14.0873  13.9854  13.9170  13.8257  13.7810  13.5790  13.5969  13.5237  13.5101  13.4167  13.3801  13.4007  13.3805  13.2171  12.9709  12.8066  12.7398  12.6935  12.6352  12.5794  12.5436  12.4994  24.6705  25.0209  23.5987  21.5876  20.1555  32.2174  28.7704  25.3937  22.8841  20.8136  32.1066  28.7564  25.4072  22.2726  20.0418  17.6653  16.0703  15.0436  13.8976  13.4219  12.9118  12.9945  12.7046  12.5320  12.4519  17.5148  16.0105  15.0000  13.8322  13.4765  13.2197  12.9651  12.5165  12.3607  12.2967  20.9292  17.5439  15.0087  13.9507  13.4490  12.8017  12.5305  19.9537  18.7709  17.4473  16.0516  14.9446  27.2278  23.7441  21.4511  20.0947  19.2948  23.0465  30.5711  31.7480  31.8277  29.4189  27.5337  25.8090  24.1766  23.5460  21.1733  20.4942  31.4511  30.1513  30.9669  32.4322  30.8166  29.6244  27.4500  25.6135  24.1113  23.6001  21.1977  20.4840  18.5768  18.0998  17.5263  16.9026  16.3547  22.2862  25.3258  20.9312 # Blackbody T = 1600.000
  19.0997  17.5916  16.5458  16.2881  16.0404  15.2760  14.4806  14.0273  13.9192  13.7761  13.7531  13.6542  16.1931  16.1325  21.1100  19.0616  17.5386  16.5085  16.1042  16.2380  15.8928  15.8287  15.4619  15.3708  15.2512  15.0807  15.0449  14.6257  14.4493  14.2721  14.2272  14.1366  14.0780  14.0007  13.9620  13.7862  13.8048  13.7425  13.7313  13.6505  13.6148  13.6374  13.6203  13.4810  13.2700  13.1286  13.0707  13.0308  12.9802  12.9314  12.9002  12.8614  24.6693  24.7550  22.5434  20.7199  19.5015  29.8716  27.0158  24.0197  21.8553  19.9999  29.7693  27.0036  24.0344  21.3202  19.3586  17.2928  15.9173  15.0469  14.0667  13.6650  13.2278  13.3170  13.0623  12.9058  12.8309  17.1546  15.8611  15.0000  14.0060  13.7025  13.4834  13.2652  12.8764  12.7374  12.6780  20.0917  17.1805  15.0077  14.1078  13.6792  13.1247  12.8887  19.2423  18.2342  17.0929  15.8969  14.9531  25.6384  22.5626  20.5445  19.3632  18.6849  22.0710  29.8923  31.0031  30.5329  27.5532  25.9272  24.3801  23.0021  22.3895  20.3106  19.7429  30.8058  29.5025  30.3332  30.7525  28.7255  27.6932  25.8464  24.2694  22.9418  22.4448  20.3309  19.7352  18.1090  17.7018  17.1731  16.6377  16.1607  21.4724  24.0476  20.1593 # Blackbody T = 1800.000
  18.5698  17.2577  16.3400  16.1195  15.9032  15.2440  14.5571  14.1646  14.0706  13.9465  13.9265  13.8415  16.2064  16.1501  20.3314  18.5322  17.2075  16.3037  15.9989  16.0718  15.7693  15.7105  15.3982  15.3141  15.2184  15.0695  15.0388  14.6760  14.5245  14.3710  14.3352  14.2547  14.2035  14.1370  14.1031  13.9478  13.9667  13.9129  13.9034  13.8326  13.7975  13.8218  13.8070  13.6864  13.5029  13.3793  13.3283  13.2934  13.2488  13.2057  13.1780  13.1435  24.6623  24.1011  21.6231  20.0225  18.9762  27.9869  25.5966  22.9134  21.0206  19.3496  27.8935  25.5860  22.9278  20.5482  18.8075  16.9963  15.7965  15.0494  14.1984  13.8542  13.4737  13.5681  13.3410  13.1972  13.1265  16.8687  15.7433  15.0000  14.1414  13.8784  13.6885  13.4987  13.1569  13.0312  12.9754  19.4228  16.8919  15.0069  14.2300  13.8584  13.3761  13.1679  18.6766  17.8084  16.8124  15.7747  14.9597  24.3605  21.6151  19.8205  18.7812  18.2002  21.2785  29.3345  30.2499  28.8671  26.0442  24.6286  23.2307  22.0521  21.4622  19.6210  19.1391  30.2531  28.9727  29.7722  28.9072  27.0438  26.1452  24.5547  23.1777  21.9962  21.5170  19.6382  19.1331  17.7258  17.3768  16.8918  16.4263  16.0072  20.8004  23.0137  19.5316 # Blackbody T = 2000.000
  18.1374  16.9862  16.1742  15.9830  15.7926  15.2179  14.6179  14.2740  14.1913  14.0824  14.0647  13.9908  16.1956  16.1424  19.6928  18.1004  16.9384  16.1386  15.9058  15.9373  15.6700  15.6156  15.3470  15.2688  15.1917  15.0606  15.0340  14.7163  14.5843  14.4500  14.4207  14.3490  14.3038  14.2457  14.2158  14.0766  14.0959  14.0488  14.0407  13.9779  13.9433  13.9689  13.9559  13.8502  13.6885  13.5793  13.5339  13.5031  13.4633  13.4247  13.3999  13.3689  24.6345  23.2024  20.8606  19.4528  18.5475  26.4400  24.4255  22.0049  20.3310  18.8193  26.3558  24.4163  22.0186  19.9107  18.3548  16.7557  15.6990  15.0511  14.3033  14.0051  13.6697  13.7683  13.5636  13.4301  13.3629  16.6373  15.6484  15.0000  14.2494  14.0186  13.8521  13.6850  13.3809  13.2660  13.2132  18.8775  16.6579  15.0062  14.3275  14.0012  13.5766  13.3909  18.2173  17.4635  16.5857  15.6761  14.9649  23.3110  20.8395  19.2302  18.3083  17.8071  20.6210  28.8563  29.3167  27.2674  24.8032  23.5591  22.2875  21.2678  20.7030  19.0584  18.6442  29.7475  28.5233  29.1517  27.2599  25.6626  24.8782  23.4922  22.2744  21.2158  20.7565  19.0732  18.6396  17.4089  17.1074  16.6634  16.2544  15.8832  20.2348  22.1592  19.0119 # Blackbody T = 2200.000
  17.7788  16.7620  16.0382  15.8706  15.7018  15.1963  14.6672  14.3629  14.2895  14.1929  14.1771  14.1122  16.1690  16.1183  19.1610  17.7424  16.7161  16.0032  15.8235  15.8267  15.5888  15.5382  15.3052  15.2319  15.1697  15.0534  15.0303  14.7491  14.6330  14.5143  14.4898  14.4258  14.3854  14.3341  14.3074  14.1815  14.2011  14.1594  14.1523  14.0960  14.0619  14.0885  14.0770  13.9834  13.8396  13.7422  13.7013  13.6738  13.6381  13.6032  13.5807  13.5526  24.5479  22.3493  20.2246  18.9799  18.1924  25.1484  23.4434  21.2467  19.7527  18.3796  25.0729  23.4354  21.2595  19.3761  17.9772  16.5572  15.6191  15.0525  14.3886  14.1277  13.8293  13.9313  13.7451  13.6201  13.5557  16.4467  15.5706  15.0000  14.3373  14.1327  13.9851  13.8365  13.5635  13.4576  13.4073  18.4256  16.4652  15.0056  14.4066  14.1174  13.7398  13.5726  17.8379  17.1793  16.3993  15.5953  14.9691  22.4342  20.1938  18.7408  17.9176  17.4827  20.0660  28.4159  28.1845  25.8746  23.7661  22.6638  21.5007  20.6095  20.0711  18.5917  18.2322  29.2511  28.1119  28.3152  25.8546  24.5084  23.8231  22.6033  21.5152  20.5610  20.1227  18.6045  18.2286  17.1438  16.8813  16.4749  16.1124  15.7815  19.7515  21.4405  18.5753 # Blackbody T = 2400.000
  17.4774  16.5742  15.9251  15.7769  15.6263  15.1783  14.7078  14.4364  14.3707  14.2844  14.2701  14.2126  16.1323  16.0838  18.7124  17.4415  16.5299  15.8906  15.7506  15.7344  15.5214  15.4739  15.2705  15.2013  15.1512  15.0475  15.0272  14.7764  14.6731  14.5676  14.5466  14.4894  14.4529  14.4072  14.3832  14.2683  14.2880  14.2509  14.2446  14.1938  14.1601  14.1875  14.1773  14.0937  13.9646  13.8771  13.8400  13.8154  13.7829  13.7511  13.7307  13.7050  24.3294  21.6087  19.6874  18.5819  17.8942  24.0542  22.6086  20.6053  19.2617  18.0099  23.9872  22.6016  20.6171  18.9222  17.6582  16.3911  15.5526  15.0536  14.4591  14.2292  13.9615  14.0663  13.8955  13.7777  13.7158  16.2876  15.5059  15.0000  14.4099  14.2270  14.0952  13.9619  13.7150  13.6166  13.5684  18.0457  16.3041  15.0051  14.4720  14.2135  13.8750  13.7234  17.5200  16.9417  16.2440  15.5280  14.9726  21.6912  19.6487  18.3292  17.5901  17.2112  19.5909  27.9595  26.9999  24.6806  22.8872  21.9040  20.8352  20.0495  19.5377  18.1991  17.8845  28.7276  27.6763  27.2685  24.6571  23.5299  22.9317  21.8491  20.8690  20.0042  19.5871  18.2104  17.8816  16.9199  16.6895  16.3171  15.9936  15.6967  19.3331  20.8273  18.2039 # Blackbody T = 2600.000
  17.2211  16.4151  15.8297  15.6977  15.5625  15.1630  14.7417  14.4980  14.4388  14.3612  14.3481  14.2969  16.0894  16.0427  18.3295  17.1857  16.3722  15.7957  15.6858  15.6564  15.4646  15.4200  15.2413  15.1758  15.1356  15.0425  15.0247  14.7993  14.7068  14.6123  14.5942  14.5428  14.5096  14.4685  14.4469  14.3411  14.3610  14.3277  14.3221  14.2758  14.2425  14.2706  14.2614  14.1863  14.0697  13.9905  13.9566  13.9344  13.9048  13.8756  13.8569  13.8333  23.8948  20.9702  19.2286  18.2431  17.6409  23.1161  21.8909  20.0563  18.8404  17.6954  23.0570  21.8849  20.0672  18.5326  17.3858  16.2505  15.4965  15.0545  14.5183  14.3143  14.0726  14.1798  14.0221  13.9105  13.8506  16.1530  15.4514  15.0000  14.4709  14.3062  14.1876  14.0673  13.8425  13.7505  13.7041  17.7225  16.1679  15.0047  14.5269  14.2942  13.9886  13.8502  17.2505  16.7407  16.1128  15.4712  14.9755  21.0541  19.1831  17.9790  17.3122  16.9813  19.1795  27.4243  25.8794  23.6529  22.1335  21.2516  20.2656  19.5677  19.0821  17.8650  17.5877  28.1393  27.1391  26.1672  23.6285  22.6904  22.1694  21.2016  20.3128  19.5253  19.1292  17.8750  17.5855  16.7288  16.5250  16.1835  15.8929  15.6253  18.9671  20.2978  17.8848 # Blackbody T = 2800.000
  17.0009  16.2787  15.7485  15.6300  15.5082  15.1499  14.7705  14.5503  14.4966  14.4264  14.4144  14.3685  16.0428  15.9978  17.9995  16.9660  16.2370  15.7148  15.6280  15.5898  15.4164  15.3741  15.2165  15.1540  15.1222  15.0383  15.0226  14.8188  14.7354  14.6503  14.6344  14.5881  14.5577  14.5206  14.5010  14.4030  14.4231  14.3930  14.3879  14.3456  14.3125  14.3413  14.3329  14.2650  14.1591  14.0870  14.0559  14.0357  14.0085  13.9817  13.9644  13.9426  23.2707  20.4162  18.8328  17.9516  17.4236  22.3033  21.2679  19.5819  18.4754  17.4251  22.2517  21.2626  19.5919  18.1950  17.1509  16.1302  15.4487  15.0552  14.5685  14.3867  14.1671  14.2764  14.1300  14.0237  13.9656  16.0380  15.4050  15.0000  14.5227  14.3735  14.2662  14.1570  13.9511  13.8647  13.8198  17.4448  16.0514  15.0043  14.5735  14.3627  14.0853  13.9583  17.0195  16.5688  16.0008  15.4229  14.9779  20.5022  18.7814  17.6779  17.0740  16.7844  18.8197  26.7727  24.8624  22.7614  21.4806  20.6857  19.7733  19.1491  18.6891  17.5777  17.3319  27.4606  26.4599  25.1239  22.7371  21.9626  21.5107  20.6400  19.8296  19.1093  18.7339  17.5866  17.3302  16.5643  16.3829  16.0692  15.8066  15.5643  18.6441  19.8359  17.6080 # Blackbody T = 3000.000
  16.8100  16.1609  15.6785  15.5717  15.4613  15.1386  14.7950  14.5952  14.5463  14.4824  14.4713  14.4301  15.9944  15.9511  17.7126  16.7756  16.1203  15.6452  15.5764  15.5324  15.3749  15.3346  15.1952  15.1354  15.1107  15.0347  15.0208  14.8355  14.7599  14.6829  14.6688  14.6271  14.5991  14.5654  14.5474  14.4562  14.4764  14.4491  14.4445  14.4056  14.3727  14.4020  14.3944  14.3326  14.2360  14.1701  14.1414  14.1230  14.0979  14.0731  14.0570  14.0368  22.6016  19.9317  18.4883  17.6987  17.2354  21.5927  20.7224  19.1682  18.1567  17.1907  21.5483  20.7178  19.1775  17.9000  16.9466  16.0263  15.4076  15.0558  14.6117  14.4489  14.2484  14.3595  14.2230  14.1213  14.0647  15.9389  15.3651  15.0000  14.5672  14.4314  14.3338  14.2341  14.0447  13.9632  13.9196  17.2041  15.9509  15.0040  14.6135  14.4216  14.1685  14.0514  16.8197  16.4204  15.9043  15.3813  14.9800  20.0199  18.4317  17.4168  16.8679  16.6143  18.5023  26.0249  23.9511  21.9818  20.9100  20.1906  19.3439  18.7825  18.3471  17.3284  17.1096  26.6996  25.6767  24.1757  21.9580  21.3261  20.9363  20.1488  19.4065  18.7451  18.3896  17.3365  17.1083  16.4215  16.2590  15.9705  15.7322  15.5117  18.3567  19.4293  17.3661 # Blackbody T = 3200.000
  16.6433  16.0583  15.6178  15.5210  15.4205  15.1287  14.8163  14.6341  14.5893  14.5310  14.5208  14.4834  15.9456  15.9038  17.4613  16.6093  16.0185  15.5848  15.5301  15.4825  15.3389  15.3005  15.1767  15.1193  15.1006  15.0316  15.0193  14.8501  14.7811  14.7113  14.6985  14.6609  14.6350  14.6042  14.5877  14.5024  14.5226  14.4978  14.4936  14.4576  14.4250  14.4547  14.4478  14.3914  14.3028  14.2423  14.2157  14.1988  14.1757  14.1525  14.1376  14.1188  21.9749  19.5048  18.1862  17.4775  17.0711  20.9667  20.2413  18.8048  17.8764  16.9858  20.9289  20.2373  18.8134  17.6405  16.7677  15.9358  15.3718  15.0563  14.6491  14.5030  14.3191  14.4317  14.3039  14.2062  14.1510  15.8526  15.3304  15.0000  14.6058  14.4816  14.3925  14.3011  14.1262  14.0489  14.0065  16.9937  15.8634  15.0037  14.6481  14.4727  14.2408  14.1324  16.6455  16.2913  15.8205  15.3451  14.9818  19.5951  18.1250  17.1885  16.6882  16.4661  18.2203  25.2381  23.1358  21.2948  20.4073  19.7542  18.9666  18.4590  18.0470  17.1105  16.9149  25.8956  24.8636  23.3247  21.2717  20.7650  20.4315  19.7158  19.0331  18.4239  18.0874  17.1177  16.9139  16.2966  16.1503  15.8845  15.6673  15.4661  18.0993  19.0687  17.1532 # Blackbody T = 3400.000
  16.4966  15.9681  15.5647  15.4765  15.3847  15.1201  14.8347  14.6681  14.6269  14.5736  14.5640  14.5301  15.8970  15.8568  17.2395  16.4630  15.9292  15.5319  15.4884  15.4387  15.3074  15.2706  15.1605  15.1052  15.0918  15.0289  15.0180  14.8628  14.7996  14.7360  14.7245  14.6905  14.6664  14.6381  14.6230  14.5428  14.5631  14.5404  14.5366  14.5032  14.4707  14.5009  14.4945  14.4429  14.3614  14.3056  14.2809  14.2654  14.2438  14.2223  14.2083  14.1907  21.4091  19.1262  17.9193  17.2826  16.9267  20.4113  19.8142  18.4834  17.6282  16.8055  20.3796  19.8107  18.4913  17.4106  16.6098  15.8564  15.3406  15.0567  14.6818  14.5502  14.3811  14.4951  14.3748  14.2808  14.2268  15.7770  15.3000  15.0000  14.6396  14.5255  14.4439  14.3598  14.1976  14.1241  14.0829  16.8085  15.7867  15.0035  14.6784  14.5175  14.3042  14.2035  16.4925  16.1780  15.7470  15.3135  14.9834  19.2185  17.8540  16.9874  16.5302  16.3361  17.9681  24.4621  22.4048  20.6853  19.9616  19.3669  18.6327  18.1717  17.7821  16.9186  16.7431  25.0922  24.0746  22.5623  20.6631  20.2671  19.9846  19.3316  18.7017  18.1386  17.8203  16.9252  16.7424  16.1866  16.0543  15.8091  15.6103  15.4261  17.8675  18.7468  16.9646 # Blackbody T = 3600.000
  16.3667  15.8885  15.5178  15.4373  15.3532  15.1124  14.8510  14.6981  14.6600  14.6111  14.6021  14.5713  15.8495  15.8108  17.0426  16.3335  15.8503  15.4853  15.4508  15.4001  15.2796  15.2443  15.1462  15.0928  15.0840  15.0265  15.0168  14.8740  14.8160  14.7578  14.7473  14.7166  14.6941  14.6680  14.6541  14.5784  14.5988  14.5780  14.5745  14.5434  14.5111  14.5416  14.5358  14.4883  14.4131  14.3615  14.3385  14.3242  14.3041  14.2839  14.2708  14.2543  20.9012  18.7883  17.6822  17.1100  16.7989  19.9155  19.4327  18.1974  17.4072  16.6457  19.8896  19.4296  18.2047  17.2058  16.4698  15.7864  15.3130  15.0570  14.7106  14.5919  14.4358  14.5510  14.4375  14.3467  14.2938  15.7102  15.2733  15.0000  14.6693  14.5642  14.4892  14.4116  14.2608  14.1907  14.1504  16.6445  15.7190  15.0033  14.7051  14.5570  14.3602  14.2664  16.3573  16.0780  15.6822  15.2856  14.9848  18.8826  17.6133  16.8093  16.3906  16.2212  17.7412  23.7248  21.7467  20.1413  19.5638  19.0212  18.3355  17.9151  17.5466  16.7485  16.5907  24.3200  23.3349  21.8777  20.1199  19.8224  19.5867  18.9886  18.4057  17.8839  17.5828  16.7545  16.5902  16.0892  15.9690  15.7424  15.5600  15.3909  17.6576  18.4577  16.7965 # Blackbody T = 3800.000
  16.2511  15.8177  15.4763  15.4024  15.3251  15.1056  14.8653  14.7247  14.6894  14.6444  14.6360  14.6078  15.8032  15.7661  16.8669  16.2181  15.7801  15.4439  15.4167  15.3658  15.2550  15.2210  15.1336  15.0818  15.0771  15.0244  15.0158  14.8840  14.8304  14.7772  14.7676  14.7397  14.7186  14.6946  14.6817  14.6100  14.6305  14.6114  14.6081  14.5791  14.5469  14.5777  14.5724  14.5286  14.4590  14.4112  14.3897  14.3765  14.3577  14.3387  14.3265  14.3109  20.4446  18.4852  17.4704  16.9560  16.6852  19.4704  19.0903  17.9414  17.2094  16.5034  19.4500  19.0875  17.9483  17.0224  16.3448  15.7241  15.2885  15.0573  14.7362  14.6289  14.4844  14.6007  14.4934  14.4055  14.3535  15.6509  15.2495  15.0000  14.6957  14.5987  14.5295  14.4577  14.3170  14.2500  14.2105  16.4984  15.6588  15.0031  14.7288  14.5920  14.4100  14.3223  16.2370  15.9892  15.6247  15.2608  14.9860  18.5813  17.3981  16.6506  16.2664  16.1191  17.5362  23.0372  21.1520  19.6530  19.2070  18.7109  18.0695  17.6848  17.3363  16.5969  16.4547  23.5940  22.6517  21.2606  19.6325  19.4232  19.2302  18.6807  18.1400  17.6553  17.3706  16.6024  16.4544  16.0024  15.8928  15.6832  15.5153  15.3596  17.4667  18.1967  16.6460 # Blackbody T = 4000.000
  16.1475  15.7544  15.4392  15.3713  15.3000  15.0995  14.8781  14.7484  14.7156  14.6742  14.6662  14.6405  15.7586  15.7230  16.7093  16.1149  15.7174  15.4071  15.3856  15.3352  15.2331  15.2003  15.1223  15.0720  15.0709  15.0225  15.0149  14.8928  14.8433  14.7945  14.7856  14.7604  14.7406  14.7183  14.7064  14.6383  14.6588  14.6412  14.6381  14.6110  14.5789  14.6101  14.6051  14.5647  14.5001  14.4557  14.4355  14.4233  14.4057  14.3879  14.3763  14.3616  20.0324  18.2119  17.2801  16.8181  16.5834  19.0690  18.7813  17.7113  17.0315  16.3760  19.0536  18.7789  17.7177  16.8574  16.2327  15.6684  15.2667  15.0576  14.7590  14.6620  14.5279  14.6452  14.5434  14.4581  14.4070  15.5980  15.2284  15.0000  14.7193  14.6294  14.5655  14.4989  14.3674  14.3031  14.2644  16.3675  15.6051  15.0029  14.7500  14.6233  14.4546  14.3724  16.1294  15.9099  15.5734  15.2387  14.9871  18.3098  17.2049  16.5084  16.1553  16.0279  17.3501  22.4012  20.6124  19.2125  18.8853  18.4310  17.8303  17.4770  17.1474  16.4611  16.3328  22.9193  22.0243  20.7021  19.1929  19.0631  18.9094  18.4031  17.9004  17.4491  17.1799  16.4662  16.3326  15.9247  15.8244  15.6303  15.4753  15.3316  17.2924  17.9599  16.5106 # Blackbody T = 4200.000
  16.0544  15.6975  15.4060  15.3434  15.2774  15.0940  14.8895  14.7697  14.7391  14.7009  14.6934  14.6698  15.7157  15.6816  16.5672  16.0220  15.6610  15.3740  15.3573  15.3077  15.2134  15.1816  15.1122  15.0632  15.0653  15.0208  15.0141  14.9008  14.8549  14.8101  14.8018  14.7790  14.7603  14.7396  14.7285  14.6637  14.6843  14.6680  14.6652  14.6397  14.6077  14.6391  14.6345  14.5971  14.5371  14.4958  14.4768  14.4654  14.4489  14.4321  14.4212  14.4073  19.6588  17.9645  17.1085  16.6939  16.4920  18.7052  18.5013  17.5035  16.8708  16.2613  18.6945  18.4993  17.5095  16.7082  16.1317  15.6184  15.2470  15.0579  14.7795  14.6918  14.5671  14.6853  14.5884  14.5055  14.4552  15.5505  15.2094  15.0000  14.7405  14.6570  14.5978  14.5360  14.4128  14.3509  14.3129  16.2498  15.5569  15.0027  14.7689  14.6515  14.4947  14.4175  16.0328  15.8386  15.5273  15.2189  14.9881  18.0639  17.0305  16.3803  16.0554  15.9459  17.1804  21.8146  20.1208  18.8134  18.5939  18.1775  17.6141  17.2887  16.9769  16.3389  16.2229  22.2955  21.4486  20.1947  18.7947  18.7366  18.6194  18.1517  17.6834  17.2624  17.0077  16.3435  16.2228  15.8547  15.7627  15.5827  15.4393  15.3065  17.1325  17.7442  16.3883 # Blackbody T = 4400.000
  15.9702  15.6462  15.3760  15.3181  15.2570  15.0890  14.8997  14.7889  14.7602  14.7250  14.7180  14.6963  15.6746  15.6420  16.4385  15.9381  15.6101  15.3441  15.3314  15.2829  15.1957  15.1648  15.1031  15.0553  15.0602  15.0192  15.0134  14.9080  14.8654  14.8241  14.8163  14.7957  14.7781  14.7588  14.7485  14.6866  14.7073  14.6922  14.6895  14.6656  14.6337  14.6653  14.6611  14.6264  14.5705  14.5320  14.5141  14.5036  14.4880  14.4721  14.4618  14.4486  19.3189  17.7395  16.9530  16.5817  16.4093  18.3742  18.2467  17.3150  16.7250  16.1576  18.3679  18.2449  17.3206  16.5729  16.0403  15.5733  15.2293  15.0581  14.7980  14.7187  14.6025  14.7215  14.6291  14.5484  14.4989  15.5076  15.1922  15.0000  14.7596  14.6820  14.6271  14.5695  14.4538  14.3943  14.3569  16.1434  15.5133  15.0026  14.7861  14.6769  14.5309  14.4584  15.9455  15.7744  15.4858  15.2010  14.9890  17.8405  16.8725  16.2646  15.9653  15.8720  17.0251  21.2738  19.6713  18.4502  18.3290  17.9469  17.4180  17.1175  16.8225  16.2283  16.1234  21.7199  20.9200  19.7320  18.4324  18.4396  18.3559  17.9230  17.4861  17.0926  16.8517  16.2327  16.1234  15.7915  15.7068  15.5398  15.4069  15.2839  16.9856  17.5468  16.2772 # Blackbody T = 4600.000
  15.8938  15.5997  15.3489  15.2953  15.2385  15.0845  14.9090  14.8063  14.7795  14.7469  14.7402  14.7203  15.6354  15.6042  16.3216  15.8619  15.5640  15.3171  15.3076  15.2604  15.1796  15.1496  15.0948  15.0481  15.0556  15.0179  15.0127  14.9146  14.8749  14.8368  14.8295  14.8109  14.7942  14.7762  14.7667  14.7074  14.7281  14.7142  14.7117  14.6891  14.6573  14.6892  14.6852  14.6530  14.6009  14.5649  14.5480  14.5382  14.5236  14.5085  14.4987  14.4862  19.0084  17.5342  16.8116  16.4797  16.3344  18.0719  18.0142  17.1434  16.5922  16.0634  18.0698  18.0127  17.1486  16.4496  15.9572  15.5324  15.2133  15.0582  14.8148  14.7430  14.6347  14.7544  14.6662  14.5874  14.5386  15.4687  15.1767  15.0000  14.7769  14.7046  14.6536  14.5999  14.4911  14.4337  14.3969  16.0468  15.4739  15.0024  14.8016  14.7000  14.5639  14.4955  15.8664  15.7161  15.4481  15.1848  14.9898  17.6366  16.7288  16.1595  15.8835  15.8050  16.8825  20.7747  19.2590  18.1184  18.0872  17.7364  17.2394  16.9613  16.6821  16.1280  16.0330  21.1886  20.4337  19.3085  18.1016  18.1683  18.1159  17.7143  17.3061  16.9377  16.7098  16.1320  16.0331  15.7341  15.6560  15.5009  15.3774  15.2634  16.8500  17.3658  16.1761 # Blackbody T = 4800.000
  15.8242  15.5573  15.3242  15.2745  15.2217  15.0804  14.9175  14.8222  14.7969  14.7668  14.7605  14.7422  15.5979  15.5682  16.2150  15.7925  15.5220  15.2926  15.2857  15.2399  15.1650  15.1358  15.0873  15.0416  15.0515  15.0166  15.0121  14.9205  14.8835  14.8483  14.8415  14.8247  14.8089  14.7921  14.7832  14.7264  14.7471  14.7342  14.7318  14.7105  14.6788  14.7109  14.7072  14.6772  14.6286  14.5949  14.5790  14.5698  14.5560  14.5417  14.5324  14.5205  18.7238  17.3463  16.6826  16.3868  16.2661  17.7948  17.8012  16.9866  16.4709  15.9777  17.7966  17.7999  16.9915  16.3369  15.8815  15.4952  15.1987  15.0584  14.8301  14.7653  14.6640  14.7844  14.7000  14.6230  14.5748  15.4334  15.1626  15.0000  14.7927  14.7253  14.6778  14.6277  14.5252  14.4696  14.4334  15.9588  15.4380  15.0023  14.8157  14.7210  14.5939  14.5294  15.7944  15.6632  15.4139  15.1700  14.9905  17.4500  16.5977  16.0638  15.8091  15.7440  16.7512  20.3132  18.8795  17.8144  17.8658  17.5436  17.0761  16.8182  16.5539  16.0366  15.9506  20.6977  19.9852  18.9195  17.7984  17.9197  17.8963  17.5231  17.1412  16.7958  16.5802  16.0403  15.9508  15.6818  15.6097  15.4655  15.3506  15.2447  16.7245  17.1990  16.0836 # Blackbody T = 5000.000
  15.6749  15.4664  15.2713  15.2299  15.1854  15.0716  14.9354  14.8562  14.8344  14.8097  14.8041  14.7891  15.5119  15.4855  15.9856  15.6436  15.4320  15.2399  15.2379  15.1960  15.1337  15.1062  15.0712  15.0277  15.0425  15.0139  15.0109  14.9332  14.9019  14.8732  14.8672  14.8545  14.8404  14.8262  14.8187  14.7672  14.7879  14.7772  14.7752  14.7566  14.7251  14.7575  14.7544  14.7294  14.6881  14.6596  14.6456  14.6379  14.6259  14.6133  14.6051  14.5945  18.1074  16.9396  16.4047  16.1873  16.1198  17.1946  17.3402  16.6487  16.2094  15.7937  17.2052  17.3394  16.6529  16.0938  15.7186  15.4153  15.1675  15.0588  14.8629  14.8131  14.7272  14.8491  14.7729  14.6999  14.6531  15.3576  15.1323  15.0000  14.8267  14.7696  14.7299  14.6875  14.5987  14.5473  14.5122  15.7699  15.3610  15.0021  14.8461  14.7662  14.6586  14.6024  15.6401  15.5497  15.3406  15.1384  14.9921  17.0465  16.3153  15.8583  15.6496  15.6133  16.4646  19.3011  18.0521  17.1556  17.3867  17.1264  16.7240  16.5086  16.2780  15.8403  15.7734  19.6227  19.0049  18.0741  17.1417  17.3810  17.4220  17.1094  16.7846  16.4888  16.3011  15.8434  15.7738  15.5695  15.5098  15.3896  15.2932  15.2047  16.4487  16.8350  15.8843 # Blackbody T = 5500.000
  15.5532  15.3925  15.2283  15.1936  15.1558  15.0644  14.9500  14.8840  14.8649  14.8447  14.8397  14.8275  15.4360  15.4127  15.7984  15.5224  15.3586  15.1972  15.1982  15.1603  15.1083  15.0822  15.0581  15.0164  15.0352  15.0118  15.0099  14.9436  14.9170  14.8935  14.8882  14.8787  14.8662  14.8541  14.8477  14.8004  14.8213  14.8124  14.8106  14.7942  14.7629  14.7957  14.7930  14.7721  14.7369  14.7126  14.7003  14.6938  14.6832  14.6720  14.6647  14.6552  17.5993  16.6052  16.1777  16.0247  16.0007  16.6998  16.9607  16.3720  15.9954  15.6438  16.7180  16.9603  16.3756  15.8945  15.5857  15.3504  15.1420  15.0590  14.8897  14.8521  14.7790  14.9021  14.8328  14.7630  14.7173  15.2960  15.1076  15.0000  14.8544  14.8059  14.7725  14.7364  14.6590  14.6110  14.5769  15.6161  15.2984  15.0018  14.8709  14.8031  14.7117  14.6624  15.5146  15.4575  15.2810  15.1127  14.9933  16.7147  16.0845  15.6908  15.5199  15.5071  16.2260  18.4546  17.3641  16.6124  16.9924  16.7830  16.4355  16.2539  16.0526  15.6803  15.6287  18.7261  18.1877  17.3741  16.6003  16.9370  17.0328  16.7690  16.4914  16.2365  16.0729  15.6829  15.6293  15.4779  15.4281  15.3278  15.2463  15.1721  16.2169  16.5318  15.7209 # Blackbody T = 6000.000
  15.4524  15.3312  15.1928  15.1635  15.1313  15.0585  14.9620  14.9071  14.8901  14.8738  14.8694  14.8594  15.3688  15.3485  15.6431  15.4219  15.2979  15.1618  15.1648  15.1307  15.0872  15.0623  15.0472  15.0070  15.0291  15.0100  15.0090  14.9523  14.9295  14.9103  14.9055  14.8989  14.8876  14.8772  14.8718  14.8282  14.8491  14.8416  14.8401  14.8255  14.7944  14.8274  14.8252  14.8076  14.7776  14.7568  14.7459  14.7404  14.7311  14.7210  14.7144  14.7059  17.1742  16.3260  15.9892  15.8900  15.9020  16.2859  16.6437  16.1420  15.8173  15.5196  16.3107  16.6436  16.1451  15.7287  15.4754  15.2966  15.1209  15.0593  14.9120  14.8847  14.8222  14.9463  14.8827  14.8158  14.7710  15.2450  15.0872  15.0000  14.8774  14.8360  14.8080  14.7772  14.7093  14.6643  14.6310  15.4887  15.2466  15.0016  14.8915  14.8338  14.7559  14.7125  15.4108  15.3813  15.2317  15.0914  14.9944  16.4378  15.8928  15.5521  15.4125  15.4193  16.0247  17.7378  16.7841  16.1578  16.6631  16.4962  16.1955  16.0412  15.8653  15.5478  15.5087  17.9691  17.4974  16.7861  16.1475  16.5657  16.7084  16.4847  16.2468  16.0258  15.8833  15.5501  15.5094  15.4020  15.3603  15.2766  15.2075  15.1451  16.0198  16.2757  15.5849 # Blackbody T = 6500.000
  15.3677  15.2797  15.1629  15.1382  15.1105  15.0534  14.9721  14.9265  14.9114  14.8984  14.8944  14.8863  15.3094  15.2917  15.5125  15.3375  15.2469  15.1320  15.1364  15.1058  15.0695  15.0455  15.0381  14.9991  15.0240  15.0085  15.0083  14.9596  14.9400  14.9245  14.9202  14.9159  14.9057  14.8968  14.8921  14.8515  14.8725  14.8663  14.8650  14.8520  14.8209  14.8543  14.8524  14.8376  14.8120  14.7942  14.7844  14.7799  14.7716  14.7625  14.7566  14.7488  16.8141  16.0899  15.8305  15.7768  15.8192  15.9352  16.3755  15.9481  15.6673  15.4153  15.9658  16.3757  15.9508  15.5888  15.3826  15.2514  15.1032  15.0595  14.9307  14.9121  14.8587  14.9837  14.9250  14.8605  14.8165  15.2022  15.0701  15.0000  14.8968  14.8615  14.8380  14.8117  14.7520  14.7095  14.6769  15.3817  15.2030  15.0015  14.9088  14.8598  14.7934  14.7549  15.3237  15.3172  15.1903  15.0734  14.9952  16.2038  15.7315  15.4356  15.3224  15.3455  15.8529  17.1241  16.2894  15.7726  16.3846  16.2536  15.9931  15.8614  15.7078  15.4364  15.4078  17.3227  16.9076  16.2860  15.7639  16.2512  16.4346  16.2443  16.0400  15.8477  15.7236  15.4384  15.4085  15.3382  15.3030  15.2336  15.1748  15.1224  15.8504  16.0570  15.4702 # Blackbody T = 7000.000
  15.2957  15.2359  15.1374  15.1166  15.0928  15.0491  14.9807  14.9432  14.9295  14.9194  14.9158  14.9093  15.2566  15.2413  15.4012  15.2657  15.2034  15.1067  15.1118  15.0846  15.0544  15.0312  15.0303  14.9924  15.0196  15.0072  15.0077  14.9658  14.9490  14.9367  14.9327  14.9305  14.9211  14.9134  14.9095  14.8715  14.8925  14.8875  14.8863  14.8747  14.8437  14.8772  14.8757  14.8633  14.8415  14.8262  14.8175  14.8137  14.8064  14.7981  14.7928  14.7857  16.5058  15.8880  15.6953  15.6804  15.7487  15.6350  16.1462  15.7829  15.5394  15.3265  15.6707  16.1466  15.7853  15.4694  15.3035  15.2129  15.0881  15.0596  14.9468  14.9356  14.8900  15.0157  14.9613  14.8988  14.8556  15.1657  15.0555  15.0000  14.9134  14.8833  14.8636  14.8413  14.7886  14.7482  14.7163  15.2907  15.1659  15.0014  14.9236  14.8820  14.8255  14.7913  15.2496  15.2628  15.1551  15.0582  14.9960  16.0038  15.5940  15.3365  15.2458  15.2828  15.7048  16.5936  15.8632  15.4426  16.1464  16.0461  15.8206  15.7077  15.5735  15.3416  15.3218  16.7652  16.3985  15.8561  15.4353  15.9819  16.2009  16.0387  15.8633  15.6955  15.5876  15.3433  15.3226  15.2838  15.2542  15.1969  15.1469  15.1030  15.7034  15.8682  15.3723 # Blackbody T = 7500.000
  15.2336  15.1981  15.1155  15.0980  15.0775  15.0454  14.9880  14.9575  14.9451  14.9376  14.9343  14.9291  15.2095  15.1965  15.3055  15.2039  15.1660  15.0849  15.0905  15.0663  15.0414  15.0190  15.0236  14.9866  15.0158  15.0061  15.0072  14.9711  14.9567  14.9471  14.9434  14.9430  14.9345  14.9279  14.9246  14.8888  14.9099  14.9058  14.9047  14.8943  14.8634  14.8971  14.8958  14.8856  14.8670  14.8540  14.8462  14.8431  14.8365  14.8290  14.8242  14.8177  16.2392  15.7138  15.5790  15.5976  15.6881  15.3753  15.9481  15.6406  15.4291  15.2501  15.4156  15.9487  15.6427  15.3665  15.2355  15.1798  15.0750  15.0598  14.9607  14.9560  14.9171  15.0435  14.9928  14.9321  14.8895  15.1343  15.0428  15.0000  14.9278  14.9022  14.8859  14.8669  14.8203  14.7818  14.7504  15.2124  15.1340  15.0013  14.9365  14.9012  14.8532  14.8228  15.1859  15.2160  15.1248  15.0450  14.9966  15.8311  15.4757  15.2513  15.1799  15.2289  15.5760  16.1311  15.4926  15.1572  15.9407  15.8669  15.6719  15.5749  15.4580  15.2602  15.2477  16.2800  15.9553  15.4832  15.1512  15.7492  15.9993  15.8611  15.7108  15.5640  15.4704  15.2616  15.2486  15.2370  15.2120  15.1654  15.1229  15.0864  15.5749  15.7038  15.2879 # Blackbody T = 8000.000
  15.1798  15.1653  15.0965  15.0818  15.0641  15.0421  14.9944  14.9701  14.9588  14.9534  14.9505  14.9465  15.1674  15.1563  15.2223  15.1502  15.1335  15.0660  15.0718  15.0504  15.0301  15.0083  15.0177  14.9815  15.0125  15.0051  15.0068  14.9758  14.9635  14.9563  14.9528  14.9540  14.9461  14.9405  14.9377  14.9040  14.9250  14.9217  14.9207  14.9114  14.8806  14.9145  14.9133  14.9050  14.8894  14.8783  14.8713  14.8687  14.8629  14.8560  14.8516  14.8457  16.0068  15.5620  15.4779  15.5256  15.6355  15.1490  15.7756  15.5170  15.3333  15.1839  15.1932  15.7764  15.5188  15.2770  15.1763  15.1510  15.0637  15.0599  14.9728  14.9738  14.9408  15.0678  15.0204  14.9613  14.9192  15.1070  15.0319  15.0000  14.9403  14.9186  14.9053  14.8893  14.8481  14.8113  14.7804  15.1445  15.1062  15.0012  14.9476  14.9180  14.8776  14.8505  15.1306  15.1753  15.0984  15.0335  14.9972  15.6808  15.3730  15.1773  15.1228  15.1821  15.4631  15.7248  15.1678  14.9084  15.7616  15.7108  15.5427  15.4593  15.3576  15.1894  15.1834  15.8546  15.5663  15.1572  14.9036  15.5463  15.8240  15.7065  15.5780  15.4496  15.3686  15.1907  15.1843  15.1963  15.1754  15.1379  15.1020  15.0718  15.4618  15.5595  15.2145 # Blackbody T = 8500.000
  15.1326  15.1366  15.0798  15.0676  15.0524  15.0393  15.0000  14.9811  14.9707  14.9674  14.9647  14.9617  15.1295  15.1203  15.1495  15.1032  15.1050  15.0493  15.0553  15.0364  15.0201  14.9989  15.0126  14.9771  15.0096  15.0043  15.0064  14.9799  14.9695  14.9643  14.9611  14.9637  14.9564  14.9516  14.9492  14.9173  14.9383  14.9358  14.9349  14.9265  14.8957  14.9297  14.9288  14.9222  14.9090  14.8997  14.8934  14.8914  14.8861  14.8799  14.8758  14.8704  15.8026  15.4288  15.3894  15.4626  15.5894  14.9502  15.6242  15.4086  15.2493  15.1258  14.9980  15.6251  15.4103  15.1985  15.1244  15.1257  15.0538  15.0600  14.9834  14.9894  14.9618  15.0892  15.0447  14.9870  14.9454  15.0830  15.0222  15.0000  14.9513  14.9331  14.9224  14.9090  14.8726  14.8373  14.8068  15.0849  15.0819  15.0011  14.9575  14.9328  14.8990  14.8748  15.0822  15.1397  15.0753  15.0235  14.9977  15.5488  15.2829  15.1125  15.0727  15.1411  15.3634  15.3654  14.8813  14.6897  15.6043  15.5738  15.4294  15.3577  15.2697  15.1274  15.1270  15.4789  15.2225  14.8699  14.6860  15.3680  15.6703  15.5707  15.4615  15.3491  15.2795  15.1286  15.1280  15.1606  15.1432  15.1139  15.0837  15.0591  15.3614  15.4320  15.1500 # Blackbody T = 9000.000
  15.0909  15.1112  15.0650  15.0551  15.0420  15.0367  15.0050  14.9909  14.9813  14.9798  14.9774  14.9753  15.0953  15.0878  15.0852  15.0616  15.0798  15.0346  15.0406  15.0240  15.0114  14.9906  15.0080  14.9732  15.0070  15.0035  15.0060  14.9836  14.9747  14.9715  14.9684  14.9722  14.9655  14.9614  14.9595  14.9291  14.9502  14.9483  14.9475  14.9399  14.9092  14.9433  14.9426  14.9374  14.9265  14.9188  14.9131  14.9115  14.9068  14.9011  14.8974  14.8923  15.6221  15.3111  15.3113  15.4071  15.5487  14.7743  15.4904  15.3131  15.1752  15.0746  14.8254  15.4914  15.3145  15.1291  15.0786  15.1034  15.0450  15.0601  14.9929  15.0033  14.9803  15.1083  15.0663  15.0099  14.9687  15.0619  15.0137  15.0000  14.9611  14.9460  14.9376  14.9265  14.8944  14.8604  14.8303  15.0325  15.0604  15.0010  14.9662  14.9459  14.9181  14.8965  15.0395  15.1083  15.0549  15.0145  14.9981  15.4322  15.2035  15.0553  15.0285  15.1049  15.2749  15.0455  14.6268  14.4962  15.4654  15.4527  15.3295  15.2680  15.1921  15.0728  15.0772  15.1450  14.9169  14.6153  14.4936  15.2104  15.5347  15.4507  15.3586  15.2602  15.2008  15.0738  15.0782  15.1291  15.1146  15.0926  15.0675  15.0478  15.2719  15.3185  15.0931 # Blackbody T = 9500.000
  15.0539  15.0885  15.0519  15.0439  15.0327  15.0345  15.0094  14.9996  14.9907  14.9908  14.9886  14.9873  15.0643  15.0583  15.0281  15.0247  15.0574  15.0216  15.0274  15.0130  15.0035  14.9832  15.0040  14.9697  15.0047  15.0028  15.0057  14.9868  14.9794  14.9778  14.9749  14.9799  14.9736  14.9702  14.9687  14.9396  14.9607  14.9594  14.9587  14.9518  14.9212  14.9554  14.9549  14.9510  14.9421  14.9358  14.9307  14.9295  14.9253  14.9201  14.9167  14.9120  15.4614  15.2064  15.2419  15.3577  15.5125  14.6179  15.3714  15.2281  15.1092  15.0291  14.6718  15.3725  15.2294  15.0674  15.0379  15.0835  15.0371  15.0601  15.0013  15.0157  14.9969  15.1253  15.0857  15.0304  14.9896  15.0431  15.0061  15.0000  14.9699  14.9575  14.9511  14.9422  14.9139  14.8811  14.8513  14.9858  15.0413  15.0009  14.9740  14.9576  14.9351  14.9159  15.0016  15.0803  15.0367  15.0066  14.9985  15.3286  15.1330  15.0046  14.9893  15.0727  15.1957  14.7593  14.3995  14.3241  15.3418  15.3450  15.2407  15.1881  15.1232  15.0242  15.0329  14.8466  14.6435  14.3881  14.3224  15.0702  15.4141  15.3440  15.2670  15.1812  15.1309  15.0251  15.0340  15.1010  15.0893  15.0737  15.0530  15.0378  15.1917  15.2170  15.0424 # Blackbody T = 10000.000
  14.9909  15.0501  15.0295  15.0248  15.0169  15.0306  15.0169  15.0145  15.0068  15.0097  15.0079  15.0080  15.0104  15.0071  14.9311  14.9620  15.0193  14.9993  15.0049  14.9943  14.9902  14.9707  14.9971  14.9637  15.0008  15.0017  15.0052  14.9924  14.9874  14.9887  14.9861  14.9929  14.9874  14.9852  14.9843  14.9576  14.9788  14.9785  14.9779  14.9723  14.9417  14.9761  14.9758  14.9742  14.9689  14.9650  14.9608  14.9603  14.9570  14.9526  14.9497  14.9457  15.1884  15.0285  15.1242  15.2739  15.4511  14.3520  15.1693  15.0841  14.9973  14.9518  14.4110  15.1706  15.0851  14.9626  14.9686  15.0497  15.0237  15.0603  15.0157  15.0370  15.0254  15.1544  15.1189  15.0655  15.0253  15.0111  14.9932  15.0000  14.9848  14.9771  14.9743  14.9690  14.9473  14.9166  14.8874  14.9067  15.0087  15.0008  14.9873  14.9777  14.9643  14.9491  14.9372  15.0328  15.0058  14.9931  14.9992  15.1525  15.0133  14.9184  14.9227  15.0181  15.0604  14.2693  14.0116  14.0315  15.1319  15.1619  15.0900  15.0524  15.0063  14.9418  14.9577  14.3366  14.1761  14.0011  14.0314  14.8319  15.2097  15.1627  15.1115  15.0468  15.0122  14.9424  14.9588  15.0533  15.0461  15.0415  15.0284  15.0206  15.0539  15.0433  14.9563 # Blackbody T = 11000.000
  14.9395  15.0186  15.0112  15.0092  15.0039  15.0275  15.0230  15.0267  15.0200  15.0253  15.0238  15.0250  14.9652  14.9643  14.8521  14.9108  14.9881  14.9811  14.9863  14.9789  14.9793  14.9604  14.9914  14.9589  14.9976  15.0008  15.0048  14.9970  14.9940  14.9976  14.9952  15.0037  14.9988  14.9975  14.9972  14.9725  14.9936  14.9942  14.9937  14.9891  14.9586  14.9932  14.9931  14.9934  14.9909  14.9891  14.9857  14.9858  14.9832  14.9794  14.9770  14.9735  14.9657  14.8833  15.0283  15.2055  15.4009  14.1350  15.0045  14.9668  14.9060  14.8888  14.1982  15.0060  14.9675  14.8769  14.9121  15.0221  15.0128  15.0604  15.0276  15.0544  15.0489  15.1785  15.1462  15.0945  15.0549  14.9849  14.9826  15.0000  14.9970  14.9933  14.9935  14.9911  14.9749  14.9459  14.9172  14.8421  14.9821  15.0007  14.9982  14.9942  14.9884  14.9766  14.8846  14.9941  14.9805  14.9820  14.9997  15.0089  14.9157  14.8482  14.8683  14.9735  14.9491  13.8662  13.6934  13.7928  14.9608  15.0126  14.9673  14.9414  14.9110  14.8745  14.8963  13.9178  13.7920  13.6844  13.7941  14.6374  15.0431  15.0148  14.9846  14.9371  14.9155  14.8750  14.8974  15.0143  15.0107  15.0151  15.0083  15.0066  14.9401  14.9004  14.8859 # Blackbody T = 12000.000
  14.8968  14.9924  14.9959  14.9962  14.9931  15.0248  15.0281  15.0370  15.0310  15.0383  15.0371  15.0392  14.9268  14.9279  14.7865  14.8682  14.9621  14.9659  14.9707  14.9661  14.9702  14.9518  14.9867  14.9548  14.9949  15.0000  15.0044  15.0008  14.9995  15.0051  15.0029  15.0127  15.0084  15.0078  15.0079  14.9849  15.0061  15.0073  15.0069  15.0032  14.9728  15.0075  15.0076  15.0095  15.0095  15.0092  15.0065  15.0071  15.0051  15.0020  14.9999  14.9969  14.7809  14.7629  14.9487  15.1487  15.3592  13.9550  14.8678  14.8695  14.8302  14.8365  14.0218  14.8694  14.8701  14.8058  14.8651  14.9990  15.0036  15.0605  15.0375  15.0691  15.0686  15.1987  15.1692  15.1189  15.0798  14.9631  14.9738  15.0000  15.0073  15.0069  15.0095  15.0097  14.9981  14.9706  14.9422  14.7885  14.9599  15.0006  15.0074  15.0080  15.0086  14.9996  14.8409  14.9618  14.9595  14.9728  15.0002  14.8896  14.8348  14.7899  14.8232  14.9365  14.8562  13.5296  13.4283  13.5947  14.8188  14.8887  14.8655  14.8493  14.8320  14.8187  14.8453  13.5686  13.4716  13.4210  13.5972  14.4761  14.9051  14.8921  14.8793  14.8459  14.8352  14.8191  14.8464  14.9819  14.9812  14.9931  14.9915  14.9949  14.8447  14.7809  14.8273 # Blackbody T = 13000.000
  14.8608  14.9703  14.9830  14.9852  14.9838  15.0226  15.0325  15.0457  15.0403  15.0494  15.0484  15.0513  14.8939  14.8967  14.7311  14.8323  14.9401  14.9530  14.9574  14.9553  14.9625  14.9445  14.9827  14.9513  14.9926  14.9993  15.0041  15.0040  15.0042  15.0115  15.0093  15.0203  15.0165  15.0166  15.0171  14.9955  15.0167  15.0185  15.0182  15.0152  14.9848  15.0197  15.0200  15.0232  15.0252  15.0264  15.0243  15.0253  15.0238  15.0212  15.0194  15.0168  14.6255  14.6615  14.8817  15.1009  15.3240  13.8036  14.7527  14.7876  14.7664  14.7923  13.8733  14.7544  14.7880  14.7458  14.8254  14.9796  14.9959  15.0605  15.0459  15.0816  15.0853  15.2159  15.1888  15.1396  15.1009  14.9446  14.9663  15.0000  15.0161  15.0184  15.0232  15.0255  15.0179  14.9915  14.9636  14.7433  14.9411  15.0006  15.0151  15.0198  15.0258  15.0193  14.8041  14.9346  14.9417  14.9650  15.0006  14.7893  14.7666  14.7407  14.7851  14.9052  14.7776  13.2449  13.2046  13.4281  14.6994  14.7843  14.7798  14.7716  14.7654  14.7716  14.8022  13.2736  13.2008  13.1991  13.4316  14.3403  14.7891  14.7887  14.7905  14.7691  14.7676  14.7719  14.8034  14.9544  14.9563  14.9746  14.9773  14.9850  14.7637  14.6796  14.7779 # Blackbody T = 14000.000
  14.8300  14.9514  14.9720  14.9757  14.9759  15.0206  15.0361  15.0532  15.0483  15.0589  15.0582  15.0616  14.8654  14.8697  14.6839  14.8016  14.9214  14.9420  14.9460  14.9460  14.9559  14.9383  14.9793  14.9484  14.9907  14.9987  15.0039  15.0068  15.0082  15.0169  15.0149  15.0268  15.0235  15.0242  15.0250  15.0045  15.0258  15.0281  15.0279  15.0256  14.9952  15.0302  15.0306  15.0349  15.0388  15.0412  15.0396  15.0410  15.0399  15.0377  15.0362  15.0339  14.4931  14.5750  14.8245  15.0600  15.2940  13.6746  14.6546  14.7178  14.7119  14.7546  13.7469  14.6564  14.7181  14.6946  14.7915  14.9629  14.9893  15.0606  15.0532  15.0923  15.0998  15.2307  15.2057  15.1575  15.1192  14.9288  14.9598  15.0000  15.0236  15.0283  15.0349  15.0391  15.0349  15.0096  14.9820  14.7047  14.9251  15.0005  15.0218  15.0299  15.0406  15.0362  14.7726  14.9113  14.9265  14.9583  15.0009  14.7037  14.7085  14.6988  14.7526  14.8784  14.7102  13.0013  13.0136  13.2862  14.5976  14.6953  14.7068  14.7053  14.7086  14.7315  14.7654  13.0216  12.9693  13.0099  13.2906  14.2246  14.6903  14.7006  14.7149  14.7035  14.7100  14.7316  14.7666  14.9310  14.9349  14.9587  14.9651  14.9765  14.6940  14.5928  14.7357 # Blackbody T = 15000.000
  14.8033  14.9350  14.9624  14.9676  14.9691  15.0190  15.0394  15.0597  15.0552  15.0672  15.0666  15.0707  14.8404  14.8460  14.6432  14.7751  14.9051  14.9325  14.9361  14.9379  14.9502  14.9328  14.9763  14.9458  14.9890  14.9982  15.0037  15.0092  15.0117  15.0217  15.0198  15.0325  15.0295  15.0307  15.0318  15.0124  15.0337  15.0365  15.0363  15.0345  15.0042  15.0392  15.0398  15.0451  15.0505  15.0541  15.0529  15.0546  15.0540  15.0521  15.0508  15.0488  14.3792  14.5004  14.7752  15.0248  15.2680  13.5635  14.5701  14.6577  14.6648  14.7221  13.6380  14.5720  14.6578  14.6504  14.7622  14.9485  14.9835  15.0607  15.0595  15.1016  15.1123  15.2435  15.2204  15.1731  15.1350  14.9152  14.9543  15.0000  15.0301  15.0370  15.0451  15.0509  15.0497  15.0254  14.9980  14.6714  14.9112  15.0004  15.0276  15.0387  15.0535  15.0509  14.7454  14.8911  14.9133  14.9524  15.0012  14.6299  14.6583  14.6626  14.7245  14.8553  14.6519  12.7910  12.8489  13.1640  14.5099  14.6186  14.6439  14.6481  14.6596  14.6968  14.7336  12.8042  12.7695  12.8468  13.1692  14.1250  14.6053  14.6246  14.6496  14.6469  14.6602  14.6968  14.7348  14.9107  14.9164  14.9449  14.9545  14.9692  14.6336  14.5177  14.6992 # Blackbody T = 16000.000
  14.7801  14.9206  14.9540  14.9604  14.9631  15.0175  15.0421  15.0654  15.0613  15.0744  15.0740  15.0786  14.8184  14.8252  14.6077  14.7519  14.8909  14.9242  14.9274  14.9309  14.9451  14.9281  14.9737  14.9436  14.9875  14.9978  15.0035  15.0113  15.0148  15.0258  15.0240  15.0375  15.0348  15.0365  15.0378  15.0194  15.0406  15.0438  15.0437  15.0424  15.0121  15.0472  15.0479  15.0541  15.0609  15.0654  15.0646  15.0666  15.0663  15.0647  15.0637  15.0619  14.2801  14.4355  14.7323  14.9940  15.2453  13.4670  14.4967  14.6053  14.6238  14.6937  13.5434  14.4986  14.6054  14.6118  14.7366  14.9359  14.9785  15.0607  15.0650  15.1098  15.1233  15.2548  15.2333  15.1868  15.1490  14.9032  14.9494  15.0000  15.0358  15.0445  15.0541  15.0613  15.0627  15.0392  15.0121  14.6423  14.8990  15.0004  15.0327  15.0464  15.0648  15.0638  14.7217  14.8735  14.9017  14.9474  15.0014  14.5658  14.6147  14.6310  14.7000  14.8352  14.6009  12.6078  12.7055  13.0579  14.4336  14.5518  14.5891  14.5982  14.6169  14.6665  14.7059  12.6149  12.5955  12.7051  13.0638  14.0383  14.5313  14.5585  14.5928  14.5975  14.6169  14.6665  14.7071  14.8929  14.9002  14.9329  14.9453  14.9627  14.5808  14.4520  14.6674 # Blackbody T = 17000.000
  14.7596  14.9080  14.9466  14.9541  14.9578  15.0162  15.0446  15.0704  15.0666  15.0808  15.0806  15.0855  14.7989  14.8067  14.5765  14.7315  14.8784  14.9168  14.9198  14.9247  14.9407  14.9239  14.9714  14.9416  14.9862  14.9974  15.0033  15.0132  15.0175  15.0295  15.0278  15.0420  15.0395  15.0415  15.0431  15.0255  15.0467  15.0503  15.0502  15.0494  15.0191  15.0543  15.0550  15.0621  15.0701  15.0754  15.0749  15.0772  15.0772  15.0759  15.0751  15.0736  14.1933  14.3786  14.6945  14.9670  15.2253  13.3824  14.4322  14.5594  14.5878  14.6688  13.4605  14.4342  14.5594  14.5779  14.7141  14.9247  14.9740  15.0608  15.0699  15.1170  15.1331  15.2648  15.2447  15.1989  15.1614  14.8927  14.9451  15.0000  15.0409  15.0512  15.0620  15.0705  15.0743  15.0515  15.0245  14.6167  14.8883  15.0003  15.0372  15.0532  15.0748  15.0753  14.7008  14.8581  14.8916  14.9429  15.0016  14.5094  14.5763  14.6032  14.6784  14.8174  14.5561  12.4469  12.5797  12.9649  14.3667  14.4932  14.5410  14.5544  14.5795  14.6399  14.6815  12.4489  12.4428  12.5808  12.9714  13.9623  14.4665  14.5005  14.5429  14.5542  14.5789  14.6399  14.6827  14.8773  14.8860  14.9223  14.9372  14.9570  14.5342  14.3943  14.6394 # Blackbody T = 18000.000
  14.7415  14.8968  14.9401  14.9485  14.9530  15.0151  15.0468  15.0749  15.0714  15.0865  15.0864  15.0918  14.7815  14.7902  14.5488  14.7135  14.8673  14.9103  14.9129  14.9191  14.9368  14.9202  14.9693  14.9398  14.9850  14.9971  15.0031  15.0148  15.0199  15.0328  15.0311  15.0459  15.0437  15.0461  15.0478  15.0309  15.0522  15.0561  15.0560  15.0556  15.0253  15.0606  15.0614  15.0691  15.0782  15.0844  15.0842  15.0866  15.0869  15.0859  15.0852  15.0839  14.1166  14.3282  14.6611  14.9430  15.2076  13.3076  14.3752  14.5187  14.5559  14.6466  13.3873  14.3773  14.5186  14.5479  14.6941  14.9149  14.9701  15.0608  15.0742  15.1235  15.1418  15.2738  15.2549  15.2097  15.1724  14.8833  14.9413  15.0000  15.0454  15.0572  15.0691  15.0787  15.0845  15.0624  15.0357  14.5941  14.8788  15.0003  15.0412  15.0593  15.0837  15.0855  14.6823  14.8443  14.8826  14.9389  15.0018  14.4596  14.5424  14.5787  14.6593  14.8016  14.5163  12.3046  12.4686  12.8827  14.3076  14.4414  14.4985  14.5156  14.5463  14.6163  14.6599  12.3022  12.3078  12.4711  12.8898  13.8951  14.4092  14.4491  14.4988  14.5158  14.5452  14.6162  14.6611  14.8635  14.8734  14.9129  14.9299  14.9520  14.4928  14.3430  14.6146 # Blackbody T = 19000.000
  14.7253  14.8868  14.9342  14.9435  14.9488  15.0140  15.0488  15.0789  15.0757  15.0916  15.0916  15.0974  14.7658  14.7754  14.5242  14.6973  14.8573  14.9045  14.9068  14.9142  14.9333  14.9169  14.9675  14.9383  14.9840  14.9968  15.0030  15.0163  15.0220  15.0357  15.0341  15.0494  15.0475  15.0501  15.0521  15.0358  15.0571  15.0612  15.0612  15.0611  15.0309  15.0662  15.0671  15.0755  15.0855  15.0924  15.0924  15.0951  15.0956  15.0949  15.0943  15.0932  14.0485  14.2834  14.6314  14.9217  15.1919  13.2412  14.3246  14.4825  14.5275  14.6269  13.3222  14.3267  14.4824  14.5212  14.6763  14.9061  14.9666  15.0608  15.0781  15.1292  15.1496  15.2818  15.2640  15.2194  15.1823  14.8750  14.9379  15.0000  15.0494  15.0625  15.0754  15.0860  15.0938  15.0722  15.0457  14.5739  14.8703  15.0003  15.0448  15.0647  15.0917  15.0947  14.6658  14.8321  14.8745  14.9353  15.0020  14.4152  14.5122  14.5567  14.6423  14.7876  14.4808  12.1781  12.3698  12.8098  14.2550  14.3953  14.4606  14.4811  14.5167  14.5953  14.6406  12.1718  12.1877  12.3736  12.8173  13.8354  14.3583  14.4035  14.4595  14.4816  14.5152  14.5952  14.6418  14.8511  14.8620  14.9045  14.9235  14.9475  14.4558  14.2973  14.5924 # Blackbody T = 20000.000
  14.6258  14.8250  14.8979  14.9124  14.9226  15.0076  15.0609  15.1039  15.1021  15.1235  15.1243  15.1321  14.6676  14.6824  14.3733  14.5982  14.7961  14.8684  14.8687  14.8836  14.9115  14.8964  14.9561  14.9285  14.9775  14.9949  15.0022  15.0256  15.0354  15.0539  15.0527  15.0714  15.0708  15.0754  15.0784  15.0663  15.0876  15.0935  15.0937  15.0958  15.0658  15.1014  15.1028  15.1151  15.1313  15.1424  15.1442  15.1482  15.1502  15.1509  15.1514  15.1514  13.6366  14.0106  14.4497  14.7907  15.0948  12.8393  14.0168  14.2620  14.3537  14.5059  12.9284  14.0192  14.2615  14.3572  14.5669  14.8516  14.9447  15.0610  15.1023  15.1653  15.1984  15.3318  15.3213  15.2802  15.2443  14.8234  14.9167  15.0000  15.0745  15.0958  15.1149  15.1319  15.1515  15.1337  15.1082  14.4501  14.8179  15.0001  15.0671  15.0987  15.1418  15.1521  14.5644  14.7565  14.8247  14.9132  15.0031  14.1454  14.3275  14.4224  14.5375  14.7011  14.2628  11.4141  11.7729  12.3690  13.9359  14.1149  14.2301  14.2699  14.3361  14.4665  14.5221  11.3861  11.4633  11.7860  12.3796  13.4736  14.0494  14.1257  14.2199  14.2728  14.3318  14.4660  14.5234  14.7748  14.7923  14.8525  14.8835  14.9195  14.2278  14.0168  14.4565 # Blackbody T = 30000.000
  14.5780  14.7952  14.8804  14.8973  14.9098  15.0045  15.0668  15.1162  15.1150  15.1392  15.1403  15.1491  14.6192  14.6367  14.3012  14.5506  14.7665  14.8509  14.8501  14.8688  14.9009  14.8864  14.9506  14.9237  14.9743  14.9940  15.0017  15.0301  15.0419  15.0628  15.0617  15.0821  15.0822  15.0877  15.0914  15.0813  15.1026  15.1093  15.1096  15.1128  15.0829  15.1187  15.1203  15.1345  15.1538  15.1671  15.1697  15.1743  15.1771  15.1786  15.1794  15.1801  13.4443  13.8818  14.3633  14.7281  15.0481  12.6516  13.8721  14.1576  14.2709  14.4479  12.7444  13.8746  14.1569  14.2790  14.5143  14.8253  14.9341  15.0611  15.1142  15.1830  15.2224  15.3564  15.3495  15.3102  15.2749  14.7985  14.9064  15.0000  15.0868  15.1121  15.1343  15.1545  15.1800  15.1640  15.1391  14.3908  14.7925  15.0000  15.0781  15.1154  15.1664  15.1803  14.5158  14.7202  14.8007  14.9025  15.0037  14.0180  14.2397  14.3582  14.4873  14.6595  14.1586  11.0605  11.4958  12.1636  13.7860  13.9825  14.1210  14.1696  14.2503  14.4048  14.4653  11.0236  11.1280  11.5137  12.1756  13.3041  13.9044  13.9946  14.1065  14.1735  14.2447  14.4043  14.4666  14.7380  14.7586  14.8274  14.8641  14.9059  14.1184  13.8833  14.3914 # Blackbody T = 40000.000
  14.5500  14.7777  14.8700  14.8885  14.9023  15.0027  15.0703  15.1234  15.1226  15.1484  15.1498  15.1592  14.5906  14.6096  14.2592  14.5226  14.7491  14.8406  14.8391  14.8600  14.8947  14.8805  14.9474  14.9209  14.9724  14.9935  15.0015  15.0328  15.0458  15.0681  15.0671  15.0885  15.0890  15.0951  15.0990  15.0901  15.1115  15.1187  15.1191  15.1229  15.0930  15.1289  15.1306  15.1461  15.1672  15.1817  15.1849  15.1898  15.1931  15.1950  15.1962  15.1972  13.3336  13.8071  14.3129  14.6914  15.0208  12.5434  13.7883  14.0968  14.2226  14.4140  12.6383  13.7909  14.0960  14.2333  14.4835  14.8098  14.9278  15.0612  15.1212  15.1935  15.2366  15.3711  15.3663  15.3281  15.2931  14.7838  14.9004  15.0000  15.0941  15.1218  15.1458  15.1679  15.1969  15.1821  15.1575  14.3561  14.7776  14.9999  15.0845  15.1252  15.1811  15.1972  14.4872  14.6988  14.7865  14.8961  15.0040  13.9441  14.1885  14.3207  14.4578  14.6351  14.0978  10.8590  11.3371  12.0455  13.6992  13.9058  14.0575  14.1112  14.2002  14.3688  14.4320  10.8173  10.9367  11.3579  12.0583  13.2062  13.8204  13.9186  14.0406  14.1157  14.1938  14.3681  14.4334  14.7164  14.7387  14.8126  14.8527  14.8979  14.0544  13.8055  14.3533 # Blackbody T = 50000.000
  14.4954  14.7434  14.8497  14.8710  14.8874  14.9990  15.0771  15.1378  15.1376  15.1668  15.1685  15.1791  14.5341  14.5562  14.1776  14.4682  14.7151  14.8204  14.8174  14.8429  14.8825  14.8690  14.9409  14.9154  14.9688  14.9924  15.0010  15.0381  15.0534  15.0785  15.0777  15.1010  15.1023  15.1095  15.1141  15.1076  15.1290  15.1373  15.1378  15.1429  15.1131  15.1492  15.1512  15.1689  15.1936  15.2107  15.2149  15.2206  15.2248  15.2276  15.2293  15.2310  13.1229  13.6636  14.2154  14.6203  14.9675  12.3375  13.6277  13.9797  14.1291  14.3480  12.4363  13.6304  13.9787  14.1447  14.4236  14.7795  14.9155  15.0613  15.1351  15.2142  15.2649  15.4001  15.3996  15.3635  15.3293  14.7551  14.8885  15.0000  15.1085  15.1410  15.1686  15.1944  15.2305  15.2179  15.1939  14.2887  14.7484  14.9998  15.0973  15.1448  15.2101  15.2305  14.4317  14.6571  14.7588  14.8837  15.0046  13.8020  14.0895  14.2478  14.4005  14.5875  13.9802  10.4817  11.0380  11.8213  13.5331  13.7584  13.9353  13.9983  14.1033  14.2987  14.3673  10.4320  10.5783  11.0644  11.8356  13.0193  13.6597  13.7726  13.9137  14.0040  14.0955  14.2979  14.3687  14.6742  14.7000  14.7836  14.8303  14.8822  13.9304  13.6555  14.2793 # Blackbody T = 100000.000
